Voltage[V]	Current[A]	CoilCurrent[A]
2.291148E-6	-1.021277E-7
3.495819E-6	1.744311E-5
2.893481E-6	3.932052E-5
2.822619E-6	5.987969E-5
2.232109E-6	7.987263E-5
2.208482E-6	9.988651E-5
2.763589E-6	0.000120
2.621853E-6	0.000140
2.834420E-6	0.000160
2.137629E-6	0.000180
2.669083E-6	0.000200
2.739991E-6	0.000220
2.610050E-6	0.000240
2.917099E-6	0.000260
2.480114E-6	0.000280
2.255720E-6	0.000300
2.716331E-6	0.000320
2.633646E-6	0.000340
2.598215E-6	0.000360
2.456500E-6	0.000381
2.421080E-6	0.000401
2.692715E-6	0.000421
2.574610E-6	0.000441
2.751769E-6	0.000461
2.184886E-6	0.000481
2.858094E-6	0.000501
2.409282E-6	0.000521
2.869891E-6	0.000541
2.314779E-6	0.000561
2.739993E-6	0.000581
2.539189E-6	0.000601
2.822644E-6	0.000621
2.610044E-6	0.000641
2.881699E-6	0.000662
2.031333E-6	0.000681
2.102190E-6	0.000701
2.255749E-6	0.000721
2.562803E-6	0.000741
2.456500E-6	0.000761
2.373834E-6	0.000781
2.704508E-6	0.000801
2.905310E-6	0.000821
3.082467E-6	0.000841
3.212373E-6	0.000861
2.751765E-6	0.000882
2.432886E-6	0.000902
3.200566E-6	0.000922
2.739960E-6	0.000942
2.550982E-6	0.000962
2.491946E-6	0.000982
2.409275E-6	0.001002
2.799019E-6	0.001022
3.306877E-6	0.001042
2.243944E-6	0.001062
2.645496E-6	0.001082
2.633671E-6	0.001102
2.208497E-6	0.001122
2.964367E-6	0.001142
2.232113E-6	0.001162
2.362023E-6	0.001182
2.444698E-6	0.001202
2.031327E-6	0.001223
2.444702E-6	0.001243
2.775410E-6	0.001263
2.633704E-6	0.001283
2.799037E-6	0.001303
2.468329E-6	0.001322
2.621864E-6	0.001342
2.043151E-6	0.001362
2.255725E-6	0.001383
2.728157E-6	0.001403
3.082467E-6	0.001423
2.621851E-6	0.001443
3.047044E-6	0.001463
2.704541E-6	0.001483
2.680914E-6	0.001503
2.527384E-6	0.001523
2.066781E-6	0.001543
2.999792E-6	0.001563
3.212384E-6	0.001583
3.247833E-6	0.001603
2.291203E-6	0.001623
2.763616E-6	0.001644
3.011630E-6	0.001663
2.314806E-6	0.001684
2.940746E-6	0.001703
3.047044E-6	0.001723
2.704561E-6	0.001743
3.283269E-6	0.001763
3.401368E-6	0.001783
3.023430E-6	0.001803
2.893521E-6	0.001823
2.881692E-6	0.001843
2.657307E-6	0.001863
2.739966E-6	0.001884
3.129706E-6	0.001904
2.716364E-6	0.001924
3.484030E-6	0.001944
3.424984E-6	0.001964
2.858071E-6	0.001984
2.917135E-6	0.002004
2.905321E-6	0.002024
3.590338E-6	0.002044
3.247811E-6	0.002064
3.684794E-6	0.002084
3.236013E-6	0.002104
3.590341E-6	0.002124
3.767480E-6	0.002144
4.062776E-6	0.002164
3.318703E-6	0.002184
3.306879E-6	0.002204
3.342313E-6	0.002225
3.531291E-6	0.002245
3.673009E-6	0.002264
3.094288E-6	0.002285
3.295063E-6	0.002304
3.365920E-6	0.002325
3.590336E-6	0.002344
3.507654E-6	0.002364
3.637571E-6	0.002385
3.838357E-6	0.002405
3.543119E-6	0.002425
3.590350E-6	0.002445
3.649406E-6	0.002465
3.708446E-6	0.002485
3.117944E-6	0.002505
3.862004E-6	0.002525
3.224213E-6	0.002545
3.566714E-6	0.002565
3.873778E-6	0.002585
3.732073E-6	0.002605
3.673034E-6	0.002626
3.838355E-6	0.002645
3.661225E-6	0.002666
3.448637E-6	0.002685
3.578523E-6	0.002705
3.755693E-6	0.002725
3.861989E-6	0.002745
4.098192E-6	0.002765
3.968273E-6	0.002785
3.212408E-6	0.002805
3.673013E-6	0.002825
3.791116E-6	0.002845
3.968282E-6	0.002866
3.425008E-6	0.002886
3.767507E-6	0.002906
3.460447E-6	0.002926
3.767505E-6	0.002946
3.802936E-6	0.002966
3.247838E-6	0.002986
3.944653E-6	0.003006
4.204489E-6	0.003026
3.673014E-6	0.003046
3.330510E-6	0.003066
3.956480E-6	0.003086
3.661213E-6	0.003106
4.074565E-6	0.003126
3.850204E-6	0.003146
3.448631E-6	0.003166
3.413184E-6	0.003186
3.980080E-6	0.003207
4.027330E-6	0.003227
4.062776E-6	0.003247
4.393487E-6	0.003267
4.606045E-6	0.003287
3.767505E-6	0.003307
3.802936E-6	0.003326
3.495872E-6	0.003346
3.661218E-6	0.003366
4.133653E-6	0.003387
3.814754E-6	0.003407
4.334404E-6	0.003427
3.921041E-6	0.003447
4.393467E-6	0.003467
4.287152E-6	0.003487
4.086400E-6	0.003507
4.133637E-6	0.003527
4.417097E-6	0.003547
4.546997E-6	0.003567
3.590365E-6	0.003587
4.369855E-6	0.003607
3.838375E-6	0.003627
4.676898E-6	0.003647
4.393472E-6	0.003667
4.098201E-6	0.003687
4.015530E-6	0.003707
4.086394E-6	0.003727
4.310801E-6	0.003747
4.405278E-6	0.003767
4.334412E-6	0.003787
4.062766E-6	0.003807
4.617859E-6	0.003827
3.826563E-6	0.003847
4.027357E-6	0.003868
3.968300E-6	0.003888
3.980107E-6	0.003908
4.062809E-6	0.003928
4.476145E-6	0.003948
4.003725E-6	0.003968
3.991927E-6	0.003988
4.547022E-6	0.004008
4.665120E-6	0.004028
3.720304E-6	0.004048
4.606069E-6	0.004068
4.558833E-6	0.004088
3.980109E-6	0.004108
4.263571E-6	0.004128
4.712370E-6	0.004148
4.440726E-6	0.004168
3.956493E-6	0.004188
4.239942E-6	0.004208
4.298996E-6	0.004228
3.791165E-6	0.004248
4.665158E-6	0.004268
4.476160E-6	0.004288
4.724167E-6	0.004308
4.594265E-6	0.004328
4.440726E-6	0.004348
4.440717E-6	0.004368
4.700545E-6	0.004389
4.464358E-6	0.004409
4.322614E-6	0.004429
4.263566E-6	0.004449
4.369869E-6	0.004469
4.842275E-6	0.004489
4.015552E-6	0.004509
4.299001E-6	0.004529
4.759630E-6	0.004549
4.239955E-6	0.004569
3.743929E-6	0.004589
4.818687E-6	0.004609
4.759606E-6	0.004629
4.322625E-6	0.004649
4.842281E-6	0.004669
4.239961E-6	0.004689
4.523399E-6	0.004709
3.802967E-6	0.004729
5.137539E-6	0.004749
4.995811E-6	0.004769
4.358064E-6	0.004789
4.724176E-6	0.004809
4.830463E-6	0.004829
4.558857E-6	0.004849
4.393496E-6	0.004870
4.759630E-6	0.004890
5.066675E-6	0.004910
4.511607E-6	0.004930
4.924974E-6	0.004950
4.558839E-6	0.004970
4.251764E-6	0.004990
4.393496E-6	0.005010
4.582456E-6	0.005030
4.535214E-6	0.005050
4.617896E-6	0.005070
4.712381E-6	0.005090
4.795043E-6	0.005110
4.558860E-6	0.005130
4.877733E-6	0.005150
4.877737E-6	0.005170
4.393507E-6	0.005190
4.653339E-6	0.005210
4.865933E-6	0.005230
4.889545E-6	0.005250
4.617925E-6	0.005270
4.358089E-6	0.005290
4.865913E-6	0.005310
5.113932E-6	0.005330
4.735999E-6	0.005350
4.405345E-6	0.005370
4.499785E-6	0.005391
4.960390E-6	0.005411
4.487993E-6	0.005431
4.440746E-6	0.005451
4.806870E-6	0.005471
4.228159E-6	0.005491
4.452560E-6	0.005511
5.019463E-6	0.005531
4.889538E-6	0.005551
5.031248E-6	0.005571
4.393511E-6	0.005591
4.594274E-6	0.005611
5.078509E-6	0.005631
5.113938E-6	0.005651
4.854106E-6	0.005671
5.598184E-6	0.005691
0.002779	0.005711
0.002780	0.005731
0.002779	0.005751
0.002780	0.005771
0.002779	0.005791
0.002779	0.005811
0.002779	0.005831
0.002781	0.005851
0.002780	0.005871
0.002780	0.005892
0.002780	0.005912
0.002780	0.005932
0.002780	0.005952
0.002780	0.005972
0.002780	0.005992
0.002780	0.006012
0.002779	0.006032
0.002781	0.006052
0.002782	0.006072
0.002787	0.006092
0.002781	0.006112
0.002780	0.006132
0.002780	0.006152
0.002781	0.006172
0.002781	0.006192
0.002781	0.006212
0.002782	0.006232
0.002782	0.006252
0.002781	0.006272
0.002782	0.006292
0.002781	0.006312
0.002783	0.006332
0.002783	0.006352
0.002782	0.006372
0.002784	0.006393
0.002783	0.006413
0.002786	0.006433
0.002781	0.006453
0.002783	0.006473
0.002784	0.006493
0.002782	0.006513
0.002783	0.006533
0.002785	0.006553
0.002782	0.006573
0.002783	0.006593
0.002784	0.006613
0.002785	0.006633
0.002784	0.006653
0.002785	0.006673
0.002783	0.006693
0.002786	0.006713
0.002786	0.006733
0.002785	0.006753
0.002785	0.006773
0.002786	0.006793
0.002785	0.006813
0.002785	0.006833
0.002786	0.006853
0.002785	0.006873
0.002792	0.006894
0.002786	0.006914
0.002785	0.006934
0.002787	0.006954
0.002785	0.006974
0.002785	0.006994
0.002787	0.007014
0.002786	0.007034
0.002788	0.007054
0.002788	0.007074
0.002788	0.007094
0.002786	0.007114
0.002788	0.007134
0.002788	0.007154
0.002789	0.007174
0.002788	0.007194
0.002789	0.007214
0.002786	0.007234
0.002789	0.007254
0.002788	0.007274
0.002789	0.007294
0.002788	0.007314
0.002790	0.007334
0.002788	0.007354
0.002791	0.007374
0.002792	0.007395
0.002790	0.007415
0.002791	0.007435
0.002792	0.007455
0.002791	0.007475
0.002791	0.007495
0.002791	0.007515
0.002792	0.007535
0.002792	0.007555
0.002791	0.007575
0.002793	0.007595
0.002792	0.007615
0.002794	0.007635
0.002794	0.007655
0.002799	0.007675
0.002794	0.007695
0.002795	0.007715
0.002795	0.007735
0.002795	0.007755
0.002804	0.007775
0.002805	0.007795
0.002807	0.007815
0.002804	0.007835
0.002806	0.007855
0.002808	0.007876
0.002810	0.007896
0.002809	0.007916
0.002809	0.007936
0.002809	0.007956
0.002807	0.007976
0.002808	0.007996
0.002810	0.008016
0.002813	0.008036
0.002808	0.008056
0.002815	0.008076
0.002812	0.008096
0.002812	0.008116
0.002810	0.008136
0.002811	0.008156
0.002813	0.008176
0.002815	0.008196
0.002816	0.008216
0.002815	0.008236
0.002814	0.008256
0.002817	0.008276
0.002817	0.008296
0.002819	0.008316
0.002816	0.008336
0.002819	0.008356
0.002819	0.008377
0.002820	0.008397
0.002822	0.008417
0.002821	0.008437
0.002822	0.008457
0.002823	0.008477
0.002822	0.008497
0.002826	0.008517
0.002825	0.008537
0.002827	0.008557
0.002827	0.008577
0.002829	0.008597
0.002828	0.008617
0.002831	0.008637
0.002832	0.008657
0.002832	0.008677
0.002835	0.008697
0.002835	0.008717
0.002836	0.008737
0.002838	0.008757
0.002839	0.008777
0.002838	0.008797
0.002842	0.008817
0.002843	0.008837
0.002845	0.008857
0.002846	0.008878
0.002848	0.008898
0.002851	0.008918
0.002852	0.008938
0.002853	0.008958
0.002856	0.008978
0.002859	0.008998
0.002861	0.009018
0.002864	0.009038
0.002866	0.009058
0.002870	0.009078
0.002872	0.009098
0.002876	0.009118
0.002880	0.009138
0.002885	0.009158
0.002888	0.009178
0.002891	0.009198
0.002897	0.009218
0.002901	0.009238
0.002907	0.009258
0.002910	0.009278
0.002915	0.009298
0.002923	0.009318
0.002926	0.009338
0.002932	0.009358
0.002938	0.009379
0.002945	0.009399
0.002949	0.009419
0.002955	0.009439
0.002963	0.009459
0.002968	0.009479
0.002976	0.009499
0.002979	0.009519
0.002984	0.009539
0.002993	0.009559
0.002996	0.009579
0.003004	0.009599
0.003009	0.009619
0.003015	0.009639
0.003022	0.009659
0.003027	0.009679
0.003031	0.009699
0.003037	0.009719
0.003043	0.009739
0.003049	0.009759
0.003055	0.009779
0.003059	0.009799
0.003067	0.009819
0.003072	0.009839
0.003076	0.009859
0.003085	0.009880
0.003088	0.009900
0.003094	0.009920
0.003100	0.009940
0.003104	0.009960
0.003110	0.009980
0.003116	0.010000
