Voltage[V]	Current[A]	CoilCurrent[A]
3.046940E-6	-9.922415E-8
2.952465E-6	1.744316E-5
2.657207E-6	3.930378E-5
3.011555E-6	5.987628E-5
2.834391E-6	7.987105E-5
2.857998E-6	9.988500E-5
3.483950E-6	0.000120
3.483938E-6	0.000140
2.763491E-6	0.000160
3.165072E-6	0.000180
3.023337E-6	0.000200
2.621780E-6	0.000220
3.306781E-6	0.000240
2.669014E-6	0.000260
2.858020E-6	0.000280
3.165096E-6	0.000300
2.680837E-6	0.000320
3.165071E-6	0.000340
2.952465E-6	0.000360
3.188679E-6	0.000381
2.846169E-6	0.000401
2.657216E-6	0.000421
2.893437E-6	0.000441
2.964285E-6	0.000461
2.822568E-6	0.000481
2.692666E-6	0.000501
2.515495E-6	0.000521
3.212303E-6	0.000541
2.775332E-6	0.000561
3.507577E-6	0.000581
2.810741E-6	0.000601
3.271365E-6	0.000621
3.035171E-6	0.000641
2.562767E-6	0.000661
3.389492E-6	0.000681
3.283170E-6	0.000701
2.444633E-6	0.000721
2.728071E-6	0.000741
2.586348E-6	0.000761
2.574532E-6	0.000781
2.609973E-6	0.000801
2.881625E-6	0.000821
3.106017E-6	0.000841
3.129635E-6	0.000861
3.365858E-6	0.000882
2.881625E-6	0.000902
2.456452E-6	0.000922
2.952474E-6	0.000942
2.149371E-6	0.000962
3.247749E-6	0.000982
2.444649E-6	0.001002
3.165071E-6	0.001022
3.472151E-6	0.001042
2.917046E-6	0.001062
2.787172E-6	0.001082
2.893446E-6	0.001102
3.023344E-6	0.001122
2.952473E-6	0.001142
3.672911E-6	0.001162
2.609964E-6	0.001182
2.798943E-6	0.001202
2.562752E-6	0.001223
2.562741E-6	0.001243
3.224142E-6	0.001263
3.129629E-6	0.001283
2.869810E-6	0.001303
3.460327E-6	0.001322
3.200508E-6	0.001342
3.188712E-6	0.001362
2.645427E-6	0.001383
3.424915E-6	0.001403
3.389494E-6	0.001423
2.917064E-6	0.001443
2.881658E-6	0.001463
3.531210E-6	0.001483
2.633635E-6	0.001503
3.389472E-6	0.001523
2.539124E-6	0.001543
2.940682E-6	0.001563
3.684740E-6	0.001583
3.413121E-6	0.001603
3.354055E-6	0.001623
3.165091E-6	0.001644
3.283203E-6	0.001663
3.176892E-6	0.001684
3.106039E-6	0.001703
2.645431E-6	0.001723
3.413092E-6	0.001743
3.495776E-6	0.001763
3.460351E-6	0.001783
2.928880E-6	0.001803
3.318632E-6	0.001823
3.306805E-6	0.001843
3.200506E-6	0.001863
2.810762E-6	0.001884
3.956373E-6	0.001904
3.578471E-6	0.001924
2.987945E-6	0.001944
3.377671E-6	0.001964
3.578460E-6	0.001984
2.869836E-6	0.002004
3.472165E-6	0.002024
3.094236E-6	0.002044
3.708376E-6	0.002064
3.661142E-6	0.002084
3.826492E-6	0.002104
3.460356E-6	0.002124
3.354047E-6	0.002144
3.554849E-6	0.002164
3.472169E-6	0.002184
3.306812E-6	0.002204
3.129669E-6	0.002225
3.354085E-6	0.002245
4.275307E-6	0.002264
3.165100E-6	0.002285
3.802857E-6	0.002304
2.834407E-6	0.002325
3.259594E-6	0.002344
3.791058E-6	0.002364
3.365885E-6	0.002385
3.543040E-6	0.002405
3.897365E-6	0.002425
3.850097E-6	0.002445
3.991816E-6	0.002465
3.814690E-6	0.002485
3.779242E-6	0.002505
3.767429E-6	0.002525
3.696594E-6	0.002545
3.991829E-6	0.002565
4.062684E-6	0.002585
4.440628E-6	0.002605
3.661149E-6	0.002626
4.251668E-6	0.002645
3.224186E-6	0.002666
3.779262E-6	0.002685
4.039093E-6	0.002705
3.732019E-6	0.002725
4.145391E-6	0.002745
3.991834E-6	0.002765
3.932792E-6	0.002785
4.192618E-6	0.002805
4.086334E-6	0.002825
3.306837E-6	0.002845
3.342295E-6	0.002866
3.885543E-6	0.002886
4.546908E-6	0.002906
4.109941E-6	0.002926
3.850117E-6	0.002946
3.838304E-6	0.002966
3.944588E-6	0.002986
3.944602E-6	0.003006
4.015468E-6	0.003026
3.909166E-6	0.003046
3.991860E-6	0.003066
4.665029E-6	0.003086
3.743837E-6	0.003106
4.499700E-6	0.003126
4.062711E-6	0.003146
4.180820E-6	0.003166
3.720203E-6	0.003186
4.334337E-6	0.003207
4.157175E-6	0.003227
4.239855E-6	0.003247
4.003654E-6	0.003267
3.873753E-6	0.003286
3.672969E-6	0.003306
3.861946E-6	0.003326
4.287112E-6	0.003346
4.015485E-6	0.003366
4.204447E-6	0.003387
3.873738E-6	0.003407
3.720199E-6	0.003427
4.287114E-6	0.003447
4.027275E-6	0.003467
4.487874E-6	0.003487
4.169000E-6	0.003507
4.204439E-6	0.003527
4.216248E-6	0.003547
3.814688E-6	0.003567
4.133568E-6	0.003587
4.239861E-6	0.003607
4.570567E-6	0.003627
4.357984E-6	0.003647
4.228066E-6	0.003667
4.641421E-6	0.003687
4.334368E-6	0.003707
4.582380E-6	0.003727
4.192623E-6	0.003747
4.428828E-6	0.003767
4.381591E-6	0.003787
4.086340E-6	0.003807
4.499685E-6	0.003827
4.086340E-6	0.003847
3.980043E-6	0.003868
4.724088E-6	0.003888
4.558746E-6	0.003908
4.665040E-6	0.003928
4.960304E-6	0.003948
4.346181E-6	0.003968
4.889442E-6	0.003988
4.842199E-6	0.004008
4.405223E-6	0.004028
4.381600E-6	0.004048
4.889447E-6	0.004068
4.428848E-6	0.004088
4.393398E-6	0.004108
4.535164E-6	0.004128
4.310756E-6	0.004148
4.228054E-6	0.004168
4.936686E-6	0.004188
3.755658E-6	0.004208
3.991858E-6	0.004228
4.322552E-6	0.004248
4.263509E-6	0.004268
4.594207E-6	0.004288
4.487907E-6	0.004308
4.676864E-6	0.004328
4.594212E-6	0.004348
4.960337E-6	0.004368
4.795022E-6	0.004389
3.991861E-6	0.004409
4.960335E-6	0.004429
4.464295E-6	0.004449
4.771371E-6	0.004469
4.535144E-6	0.004489
4.653260E-6	0.004509
5.291024E-6	0.004529
5.090254E-6	0.004549
3.779298E-6	0.004569
4.594203E-6	0.004589
4.558773E-6	0.004609
5.326443E-6	0.004629
4.806790E-6	0.004649
5.208325E-6	0.004669
4.972133E-6	0.004689
4.676876E-6	0.004709
4.972138E-6	0.004729
4.688689E-6	0.004749
4.606005E-6	0.004769
5.255581E-6	0.004789
4.983953E-6	0.004809
4.724128E-6	0.004829
4.251706E-6	0.004849
4.688687E-6	0.004869
4.995774E-6	0.004890
4.665091E-6	0.004910
4.700509E-6	0.004930
5.102065E-6	0.004950
4.712299E-6	0.004970
4.913074E-6	0.004990
4.972133E-6	0.005010
5.208341E-6	0.005030
4.972131E-6	0.005050
4.381633E-6	0.005070
4.877656E-6	0.005090
4.771360E-6	0.005110
5.149295E-6	0.005130
4.747744E-6	0.005150
4.641450E-6	0.005170
4.724126E-6	0.005190
4.287138E-6	0.005211
4.606021E-6	0.005230
4.724126E-6	0.005250
5.385507E-6	0.005270
5.043012E-6	0.005290
4.452488E-6	0.005310
4.688689E-6	0.005330
4.653262E-6	0.005350
4.806789E-6	0.005370
5.090238E-6	0.005391
4.924910E-6	0.005411
0.002779	0.005431
0.002778	0.005451
0.002778	0.005471
0.002779	0.005491
0.002778	0.005511
0.002779	0.005531
0.002779	0.005551
0.002779	0.005571
0.002779	0.005591
0.002777	0.005611
0.002779	0.005631
0.002779	0.005651
0.002779	0.005671
0.002779	0.005691
0.002780	0.005711
0.002779	0.005731
0.002779	0.005751
0.002780	0.005771
0.002779	0.005791
0.002780	0.005811
0.002780	0.005831
0.002781	0.005851
0.002780	0.005871
0.002780	0.005892
0.002780	0.005912
0.002780	0.005932
0.002780	0.005952
0.002780	0.005972
0.002781	0.005992
0.002781	0.006012
0.002781	0.006032
0.002781	0.006052
0.002781	0.006072
0.002782	0.006092
0.002781	0.006112
0.002782	0.006132
0.002781	0.006152
0.002780	0.006172
0.002783	0.006192
0.002781	0.006212
0.002782	0.006232
0.002782	0.006252
0.002781	0.006272
0.002781	0.006292
0.002783	0.006312
0.002782	0.006332
0.002782	0.006352
0.002784	0.006372
0.002784	0.006393
0.002783	0.006413
0.002783	0.006433
0.002783	0.006453
0.002784	0.006473
0.002783	0.006493
0.002790	0.006513
0.002784	0.006533
0.002784	0.006553
0.002785	0.006573
0.002785	0.006593
0.002784	0.006613
0.002783	0.006633
0.002784	0.006653
0.002783	0.006673
0.002785	0.006693
0.002786	0.006713
0.002785	0.006733
0.002785	0.006753
0.002783	0.006773
0.002787	0.006793
0.002785	0.006813
0.002785	0.006833
0.002785	0.006853
0.002786	0.006873
0.002785	0.006894
0.002787	0.006914
0.002786	0.006934
0.002785	0.006954
0.002788	0.006974
0.002787	0.006994
0.002786	0.007014
0.002788	0.007034
0.002788	0.007054
0.002786	0.007074
0.002789	0.007094
0.002788	0.007114
0.002788	0.007134
0.002789	0.007154
0.002789	0.007174
0.002789	0.007194
0.002789	0.007214
0.002790	0.007234
0.002790	0.007254
0.002789	0.007274
0.002788	0.007294
0.002789	0.007314
0.002788	0.007334
0.002790	0.007354
0.002791	0.007374
0.002790	0.007395
0.002791	0.007415
0.002791	0.007435
0.002791	0.007455
0.002792	0.007475
0.002792	0.007495
0.002792	0.007515
0.002793	0.007535
0.002795	0.007555
0.002793	0.007575
0.002794	0.007595
0.002792	0.007615
0.002794	0.007635
0.002794	0.007655
0.002795	0.007675
0.002797	0.007695
0.002804	0.007715
0.002804	0.007735
0.002805	0.007755
0.002804	0.007775
0.002802	0.007795
0.002806	0.007815
0.002804	0.007835
0.002806	0.007855
0.002808	0.007876
0.002807	0.007896
0.002810	0.007916
0.002805	0.007936
0.002809	0.007956
0.002810	0.007976
0.002810	0.007996
0.002807	0.008016
0.002811	0.008036
0.002811	0.008056
0.002809	0.008076
0.002811	0.008096
0.002810	0.008116
0.002810	0.008136
0.002812	0.008156
0.002812	0.008176
0.002813	0.008196
0.002813	0.008216
0.002815	0.008236
0.002817	0.008256
0.002820	0.008276
0.002816	0.008296
0.002817	0.008316
0.002816	0.008336
0.002820	0.008356
0.002819	0.008377
0.002819	0.008397
0.002819	0.008417
0.002820	0.008437
0.002822	0.008457
0.002821	0.008477
0.002822	0.008497
0.002825	0.008517
0.002827	0.008537
0.002827	0.008557
0.002827	0.008577
0.002829	0.008597
0.002830	0.008617
0.002831	0.008637
0.002832	0.008657
0.002832	0.008677
0.002834	0.008697
0.002836	0.008717
0.002837	0.008737
0.002838	0.008757
0.002839	0.008777
0.002841	0.008797
0.002842	0.008817
0.002844	0.008837
0.002845	0.008857
0.002847	0.008878
0.002848	0.008898
0.002849	0.008918
0.002851	0.008938
0.002855	0.008958
0.002855	0.008978
0.002859	0.008998
0.002861	0.009018
0.002864	0.009038
0.002867	0.009058
0.002869	0.009078
0.002872	0.009098
0.002876	0.009118
0.002880	0.009138
0.002884	0.009158
0.002888	0.009178
0.002892	0.009198
0.002897	0.009218
0.002903	0.009238
0.002905	0.009258
0.002910	0.009278
0.002916	0.009298
0.002924	0.009318
0.002932	0.009338
0.002931	0.009358
0.002939	0.009379
0.002944	0.009399
0.002951	0.009419
0.002956	0.009439
0.002963	0.009459
0.002964	0.009479
0.002974	0.009499
0.002979	0.009519
0.002986	0.009539
0.002993	0.009559
0.002997	0.009579
0.003002	0.009599
0.003009	0.009619
0.003014	0.009639
0.003021	0.009659
0.003028	0.009679
0.003034	0.009699
0.003037	0.009719
0.003044	0.009739
0.003048	0.009759
0.003054	0.009779
0.003061	0.009799
0.003068	0.009819
0.003072	0.009839
0.003077	0.009859
0.003083	0.009880
0.003090	0.009900
0.003094	0.009920
0.003101	0.009940
0.003106	0.009960
0.003111	0.009980
0.003117	0.010000
