Voltage[V]	Current[A]	CoilCurrent[A]
1.995870E-6	-9.565980E-7
-1.370077E-6	7.100469E-6
2.515553E-6	4.836167E-5
2.066770E-6	8.638723E-5
2.173052E-6	0.000118
2.905310E-6	0.000149
2.527351E-6	0.000179
2.220280E-6	0.000209
2.645444E-6	0.000240
2.421066E-6	0.000268
2.574601E-6	0.000298
2.775396E-6	0.000329
2.302944E-6	0.000359
2.302952E-6	0.000389
2.314764E-6	0.000419
2.739951E-6	0.000450
2.444674E-6	0.000478
3.495807E-6	0.000509
2.397428E-6	0.000539
2.917110E-6	0.000569
1.936831E-6	0.000599
2.468316E-6	0.000630
2.562818E-6	0.000660
2.822639E-6	0.000688
2.669112E-6	0.000719
2.149438E-6	0.000749
2.550982E-6	0.000779
2.952533E-6	0.000809
2.361994E-6	0.000840
2.102199E-6	0.000870
2.810812E-6	0.000899
2.657291E-6	0.000929
2.421073E-6	0.000959
2.716350E-6	0.000989
2.610037E-6	0.001020
2.291168E-6	0.001050
2.468301E-6	0.001078
2.468290E-6	0.001108
2.527358E-6	0.001139
2.716331E-6	0.001169
2.232102E-6	0.001199
2.468329E-6	0.001229
2.350211E-6	0.001265
2.397432E-6	0.001293
2.232109E-6	0.001324
2.291150E-6	0.001354
2.680912E-6	0.001384
3.035204E-6	0.001414
2.314797E-6	0.001445
2.125817E-6	0.001475
2.362018E-6	0.001504
2.822615E-6	0.001534
2.066741E-6	0.001564
2.456491E-6	0.001594
2.373827E-6	0.001624
2.480116E-6	0.001655
2.680894E-6	0.001685
3.176958E-6	0.001713
2.704515E-6	0.001744
2.421064E-6	0.001774
2.810821E-6	0.001804
2.610042E-6	0.001834
2.598246E-6	0.001865
2.397450E-6	0.001895
2.090363E-6	0.001924
2.787201E-6	0.001954
3.165143E-6	0.001984
3.035204E-6	0.002014
2.491945E-6	0.002044
3.106066E-6	0.002075
2.314768E-6	0.002103
2.539162E-6	0.002133
2.149420E-6	0.002164
2.834422E-6	0.002194
2.917097E-6	0.002224
2.893479E-6	0.002255
2.362023E-6	0.002285
2.952542E-6	0.002313
2.905303E-6	0.002344
3.082458E-6	0.002374
2.704517E-6	0.002404
2.562791E-6	0.002434
2.362009E-6	0.002464
2.456487E-6	0.002495
2.775379E-6	0.002523
3.519423E-6	0.002554
2.669090E-6	0.002584
2.373834E-6	0.002614
3.058842E-6	0.002645
3.117906E-6	0.002675
2.621869E-6	0.002705
3.247815E-6	0.002734
2.940746E-6	0.002764
3.023417E-6	0.002794
3.259640E-6	0.002824
3.047033E-6	0.002855
3.318690E-6	0.002885
2.468314E-6	0.002915
3.023400E-6	0.002944
2.952542E-6	0.002974
2.456505E-6	0.003004
3.247804E-6	0.003034
2.858060E-6	0.003065
2.704515E-6	0.003095
3.200545E-6	0.003125
3.011604E-6	0.003154
3.306854E-6	0.003184
3.401341E-6	0.003214
3.295052E-6	0.003244
3.106064E-6	0.003275
3.602125E-6	0.003305
3.602105E-6	0.003333
2.468312E-6	0.003364
2.999766E-6	0.003394
3.590325E-6	0.003424
2.952534E-6	0.003454
3.082454E-6	0.003485
2.810810E-6	0.003515
3.850118E-6	0.003544
3.413134E-6	0.003574
3.365909E-6	0.003604
3.519430E-6	0.003634
3.082436E-6	0.003664
3.495807E-6	0.003695
2.881661E-6	0.003725
2.976160E-6	0.003759
3.791063E-6	0.003789
3.023406E-6	0.003819
3.672971E-6	0.003849
3.271409E-6	0.003880
3.153300E-6	0.003910
2.621839E-6	0.003940
3.838319E-6	0.003969
3.354106E-6	0.003999
3.672956E-6	0.004029
2.917130E-6	0.004059
3.094281E-6	0.004090
3.920997E-6	0.004120
2.869871E-6	0.004150
3.448593E-6	0.004179
4.121774E-6	0.004209
2.893517E-6	0.004239
3.672971E-6	0.004269
3.873753E-6	0.004300
3.672958E-6	0.004330
3.413157E-6	0.004359
3.023402E-6	0.004389
3.365891E-6	0.004419
3.011575E-6	0.004449
3.720212E-6	0.004480
3.460396E-6	0.004510
3.531255E-6	0.004540
3.094294E-6	0.004568
4.027306E-6	0.004599
3.590303E-6	0.004629
3.283245E-6	0.004659
3.649391E-6	0.004689
3.732048E-6	0.004720
3.944611E-6	0.004750
3.413157E-6	0.004779
3.448575E-6	0.004809
3.023397E-6	0.004839
3.932792E-6	0.004869
3.672969E-6	0.004900
3.259602E-6	0.004930
3.495830E-6	0.004960
3.330471E-6	0.004989
3.920997E-6	0.005019
3.342306E-6	0.005049
3.779282E-6	0.005079
3.696612E-6	0.005110
3.318650E-6	0.005140
3.424946E-6	0.005170
3.625741E-6	0.005199
3.472196E-6	0.005229
2.928919E-6	0.005259
3.413135E-6	0.005289
3.590301E-6	0.005320
3.578514E-6	0.005350
3.058833E-6	0.005380
3.377718E-6	0.005409
0.002778	0.005439
0.002785	0.005469
0.002779	0.005499
0.002776	0.005530
0.002778	0.005560
0.002783	0.005588
0.002779	0.005619
0.002785	0.005649
0.002778	0.005679
0.002779	0.005709
0.002778	0.005740
0.002783	0.005770
0.002780	0.005799
0.002781	0.005829
0.002780	0.005859
0.002783	0.005889
0.002784	0.005919
0.002780	0.005950
0.002780	0.005980
0.002781	0.006009
0.002778	0.006039
0.002780	0.006069
0.002780	0.006100
0.002781	0.006130
0.002782	0.006160
0.002784	0.006190
0.002787	0.006219
0.002781	0.006254
0.002781	0.006284
0.002781	0.006315
0.002784	0.006345
0.002788	0.006375
0.002782	0.006405
0.002780	0.006434
0.002784	0.006464
0.002783	0.006494
0.002786	0.006525
0.002785	0.006555
0.002782	0.006585
0.002784	0.006614
0.002781	0.006644
0.002786	0.006674
0.002786	0.006704
0.002789	0.006735
0.002789	0.006765
0.002787	0.006795
0.002792	0.006824
0.002791	0.006854
0.002787	0.006884
0.002787	0.006915
0.002787	0.006945
0.002786	0.006975
0.002789	0.007005
0.002787	0.007034
0.002789	0.007064
0.002792	0.007094
0.002789	0.007124
0.002791	0.007155
0.002790	0.007185
0.002793	0.007215
0.002789	0.007244
0.002798	0.007274
0.002793	0.007304
0.002792	0.007335
0.002792	0.007365
0.002794	0.007395
0.002795	0.007425
0.002798	0.007454
0.002795	0.007484
0.002792	0.007514
0.002793	0.007544
0.002801	0.007575
0.002797	0.007605
0.002797	0.007635
0.002795	0.007664
0.002802	0.007694
0.002802	0.007724
0.002803	0.007755
0.002808	0.007785
0.002799	0.007815
0.002805	0.007846
0.002809	0.007874
0.002808	0.007904
0.002809	0.007935
0.002808	0.007965
0.002810	0.007995
0.002811	0.008025
0.002813	0.008054
0.002812	0.008084
0.002811	0.008114
0.002810	0.008145
0.002815	0.008175
0.002815	0.008205
0.002815	0.008235
0.002815	0.008264
0.002815	0.008294
0.002819	0.008324
0.002817	0.008355
0.002822	0.008385
0.002821	0.008415
0.002823	0.008445
0.002824	0.008474
0.002825	0.008504
0.002826	0.008534
0.002826	0.008565
0.002829	0.008595
0.002829	0.008625
0.002832	0.008655
0.002833	0.008684
0.002831	0.008714
0.002836	0.008744
0.002837	0.008780
0.002839	0.008810
0.002842	0.008840
0.002845	0.008870
0.002847	0.008899
0.002849	0.008929
0.002852	0.008959
0.002855	0.008990
0.002859	0.009020
0.002863	0.009050
0.002867	0.009079
0.002872	0.009109
0.002877	0.009139
0.002883	0.009170
0.002889	0.009200
0.002899	0.009230
0.002904	0.009260
0.002914	0.009289
0.002918	0.009319
0.002926	0.009349
0.002935	0.009379
0.002941	0.009410
0.002955	0.009440
0.002962	0.009471
0.002971	0.009499
0.002981	0.009529
0.002987	0.009560
0.002997	0.009590
0.003005	0.009620
0.003014	0.009650
0.003024	0.009681
0.003033	0.009709
0.003040	0.009739
0.003049	0.009769
0.003059	0.009800
0.003067	0.009830
0.003074	0.009860
0.003083	0.009891
0.003092	0.009919
0.003098	0.009949
0.003108	0.009980
0.003117	0.010010
0.003125	0.010040
0.003133	0.010070
0.003142	0.010101
0.003148	0.010129
0.003158	0.010159
0.003165	0.010190
0.003173	0.010220
0.003182	0.010250
0.003188	0.010280
0.003197	0.010309
0.003204	0.010339
0.003213	0.010370
0.003221	0.010400
0.003229	0.010430
0.003236	0.010460
0.003245	0.010491
0.003252	0.010519
0.003259	0.010549
0.003268	0.010579
0.003276	0.010610
0.003283	0.010640
0.003292	0.010670
0.003299	0.010700
0.003306	0.010729
0.003314	0.010759
0.003322	0.010790
0.003330	0.010820
0.003338	0.010850
0.003345	0.010880
0.003354	0.010911
0.003360	0.010939
0.003368	0.010969
0.003376	0.010999
0.003384	0.011030
0.003391	0.011060
0.003399	0.011090
0.003407	0.011120
0.003414	0.011149
0.003421	0.011179
0.003429	0.011210
0.003437	0.011240
0.003446	0.011275
0.003453	0.011305
0.003461	0.011334
0.003469	0.011364
0.003477	0.011395
0.003484	0.011425
0.003492	0.011455
0.003500	0.011485
0.003508	0.011515
0.003514	0.011544
0.003523	0.011574
0.003529	0.011605
0.003538	0.011635
0.003546	0.011665
0.003553	0.011695
0.003561	0.011726
0.003568	0.011754
0.003576	0.011784
0.003583	0.011815
0.003591	0.011845
0.003599	0.011875
0.003607	0.011905
0.003615	0.011935
0.003621	0.011964
0.003629	0.011994
0.003637	0.012025
0.003645	0.012055
0.003652	0.012085
0.003660	0.012115
0.003668	0.012146
0.003675	0.012174
0.003682	0.012204
0.003690	0.012235
0.003698	0.012265
0.003705	0.012295
0.003713	0.012325
0.003721	0.012356
0.003728	0.012384
0.003736	0.012414
0.003743	0.012445
0.003751	0.012475
0.003760	0.012505
0.003767	0.012536
0.003774	0.012564
0.003783	0.012594
0.003790	0.012624
0.003797	0.012655
0.003804	0.012685
0.003813	0.012715
0.003820	0.012745
0.003828	0.012774
0.003835	0.012804
0.003843	0.012834
0.003850	0.012865
0.003858	0.012895
0.003867	0.012925
0.003874	0.012955
0.003881	0.012984
0.003888	0.013014
0.003896	0.013044
0.003904	0.013075
0.003911	0.013105
0.003920	0.013135
0.003926	0.013165
0.003935	0.013194
0.003941	0.013224
0.003949	0.013254
0.003957	0.013285
0.003966	0.013315
0.003972	0.013345
0.003981	0.013375
0.003988	0.013404
0.003996	0.013434
0.004002	0.013464
0.004010	0.013495
0.004018	0.013525
0.004026	0.013555
0.004034	0.013585
0.004042	0.013614
0.004050	0.013644
0.004057	0.013674
0.004064	0.013705
0.004071	0.013735
0.004081	0.013770
0.004089	0.013799
0.004095	0.013829
0.004103	0.013859
0.004111	0.013890
0.004119	0.013920
0.004127	0.013950
0.004135	0.013980
0.004143	0.014009
0.004150	0.014039
0.004157	0.014069
0.004164	0.014099
0.004173	0.014130
0.004180	0.014160
0.004188	0.014190
0.004196	0.014219
0.004204	0.014249
0.004211	0.014279
0.004218	0.014310
0.004226	0.014340
0.004234	0.014370
0.004243	0.014400
0.004249	0.014429
0.004257	0.014459
0.004264	0.014489
0.004273	0.014520
0.004281	0.014550
0.004289	0.014580
0.004296	0.014610
0.004303	0.014639
0.004311	0.014669
0.004319	0.014700
0.004327	0.014730
0.004334	0.014760
0.004342	0.014790
0.004350	0.014821
0.004357	0.014849
0.004365	0.014879
0.004372	0.014909
0.004380	0.014940
0.004388	0.014970
0.004397	0.015000
0.004387	0.014970
0.004381	0.014940
0.004373	0.014909
0.004365	0.014879
0.004357	0.014849
0.004350	0.014821
0.004342	0.014790
0.004335	0.014760
0.004327	0.014730
0.004318	0.014700
0.004310	0.014669
0.004303	0.014639
0.004296	0.014610
0.004286	0.014580
0.004281	0.014550
0.004273	0.014520
0.004265	0.014489
0.004257	0.014459
0.004250	0.014429
0.004242	0.014400
0.004234	0.014370
0.004227	0.014340
0.004219	0.014310
0.004212	0.014279
0.004203	0.014249
0.004195	0.014219
0.004188	0.014190
0.004181	0.014160
0.004173	0.014130
0.004165	0.014099
0.004158	0.014069
0.004150	0.014039
0.004143	0.014009
0.004135	0.013980
0.004127	0.013950
0.004120	0.013920
0.004111	0.013890
0.004105	0.013859
0.004095	0.013829
0.004088	0.013799
0.004082	0.013770
0.004072	0.013735
0.004063	0.013705
0.004057	0.013674
0.004049	0.013644
0.004040	0.013614
0.004034	0.013585
0.004027	0.013555
0.004018	0.013525
0.004011	0.013495
0.004003	0.013464
0.003995	0.013434
0.003988	0.013404
0.003982	0.013375
0.003972	0.013345
0.003965	0.013315
0.003956	0.013285
0.003949	0.013254
0.003942	0.013224
0.003934	0.013194
0.003927	0.013165
0.003918	0.013135
0.003911	0.013105
0.003903	0.013075
0.003896	0.013044
0.003888	0.013014
0.003881	0.012984
0.003874	0.012955
0.003865	0.012925
0.003857	0.012895
0.003851	0.012865
0.003843	0.012834
0.003835	0.012804
0.003828	0.012774
0.003819	0.012745
0.003812	0.012715
0.003805	0.012685
0.003797	0.012655
0.003789	0.012624
0.003782	0.012594
0.003775	0.012564
0.003767	0.012535
0.003759	0.012505
0.003751	0.012475
0.003743	0.012445
0.003736	0.012414
0.003728	0.012384
0.003721	0.012355
0.003713	0.012325
0.003706	0.012295
0.003698	0.012265
0.003690	0.012235
0.003683	0.012204
0.003675	0.012174
0.003668	0.012146
0.003660	0.012115
0.003652	0.012085
0.003645	0.012055
0.003637	0.012025
0.003629	0.011994
0.003622	0.011964
0.003614	0.011935
0.003607	0.011905
0.003599	0.011875
0.003591	0.011845
0.003584	0.011815
0.003576	0.011784
0.003568	0.011754
0.003562	0.011726
0.003554	0.011695
0.003546	0.011665
0.003538	0.011635
0.003531	0.011604
0.003523	0.011574
0.003514	0.011544
0.003508	0.011515
0.003500	0.011485
0.003492	0.011455
0.003485	0.011425
0.003476	0.011395
0.003469	0.011364
0.003461	0.011334
0.003454	0.011305
0.003447	0.011275
0.003438	0.011240
0.003430	0.011210
0.003422	0.011179
0.003415	0.011149
0.003407	0.011120
0.003399	0.011090
0.003391	0.011060
0.003383	0.011030
0.003376	0.010999
0.003368	0.010969
0.003360	0.010939
0.003353	0.010911
0.003345	0.010880
0.003338	0.010850
0.003330	0.010820
0.003323	0.010790
0.003314	0.010759
0.003307	0.010729
0.003299	0.010700
0.003291	0.010670
0.003284	0.010640
0.003275	0.010610
0.003268	0.010579
0.003261	0.010549
0.003253	0.010519
0.003246	0.010491
0.003237	0.010460
0.003228	0.010430
0.003222	0.010400
0.003213	0.010370
0.003205	0.010339
0.003198	0.010309
0.003190	0.010280
0.003181	0.010250
0.003173	0.010220
0.003166	0.010190
0.003158	0.010159
0.003148	0.010129
0.003142	0.010101
0.003132	0.010070
0.003124	0.010040
0.003116	0.010010
0.003108	0.009980
0.003100	0.009949
0.003093	0.009919
0.003083	0.009891
0.003075	0.009860
0.003066	0.009830
0.003058	0.009800
0.003052	0.009769
0.003040	0.009739
0.003032	0.009709
0.003024	0.009681
0.003015	0.009650
0.003006	0.009620
0.002997	0.009590
0.002990	0.009560
0.002979	0.009529
0.002973	0.009499
0.002962	0.009471
0.002953	0.009440
0.002944	0.009410
0.002937	0.009379
0.002927	0.009349
0.002918	0.009319
0.002910	0.009289
0.002903	0.009260
0.002897	0.009230
0.002889	0.009200
0.002885	0.009170
0.002877	0.009139
0.002872	0.009109
0.002867	0.009079
0.002863	0.009050
0.002859	0.009020
0.002855	0.008990
0.002852	0.008959
0.002849	0.008929
0.002846	0.008899
0.002844	0.008870
0.002841	0.008840
0.002839	0.008810
0.002837	0.008780
0.002836	0.008744
0.002834	0.008714
0.002831	0.008684
0.002831	0.008655
0.002829	0.008625
0.002827	0.008595
0.002826	0.008565
0.002826	0.008534
0.002825	0.008504
0.002823	0.008474
0.002823	0.008445
0.002822	0.008415
0.002820	0.008385
0.002820	0.008355
0.002818	0.008324
0.002818	0.008294
0.002818	0.008264
0.002817	0.008235
0.002817	0.008205
0.002815	0.008175
0.002814	0.008144
0.002812	0.008114
0.002814	0.008084
0.002812	0.008054
0.002811	0.008025
0.002809	0.007995
0.002813	0.007965
0.002811	0.007935
0.002810	0.007904
0.002809	0.007874
0.002805	0.007846
0.002806	0.007815
0.002807	0.007785
0.002807	0.007755
0.002805	0.007724
0.002807	0.007694
0.002805	0.007664
0.002805	0.007635
0.002805	0.007605
0.002804	0.007575
0.002803	0.007544
0.002804	0.007514
0.002803	0.007484
0.002803	0.007454
0.002803	0.007425
0.002802	0.007395
0.002800	0.007365
0.002800	0.007335
0.002803	0.007304
0.002801	0.007274
0.002800	0.007244
0.002799	0.007215
0.002798	0.007185
0.002797	0.007155
0.002799	0.007124
0.002798	0.007094
0.002799	0.007064
0.002794	0.007034
0.002799	0.007005
0.002796	0.006975
0.002798	0.006945
0.002799	0.006915
0.002799	0.006884
0.002800	0.006854
0.002799	0.006824
0.002799	0.006795
0.002794	0.006765
0.002797	0.006735
0.002794	0.006704
0.002792	0.006674
0.002794	0.006644
0.002794	0.006614
0.002794	0.006585
0.002794	0.006555
0.002795	0.006525
0.002795	0.006494
0.002791	0.006464
0.002790	0.006434
0.002793	0.006405
0.002794	0.006375
0.002792	0.006345
0.002792	0.006314
0.002790	0.006284
0.002792	0.006254
0.002791	0.006219
0.002788	0.006190
0.002795	0.006160
0.002791	0.006130
0.002791	0.006100
0.002794	0.006069
0.002793	0.006039
0.002795	0.006008
0.002790	0.005980
0.002788	0.005950
0.002788	0.005919
0.002790	0.005889
0.002786	0.005859
0.002790	0.005829
0.002793	0.005799
0.002790	0.005770
0.002790	0.005740
0.002790	0.005709
0.002789	0.005679
0.002793	0.005649
0.002790	0.005619
0.002789	0.005588
0.002786	0.005560
0.002785	0.005530
0.002785	0.005499
0.002789	0.005469
0.002787	0.005439
0.002793	0.005409
0.002788	0.005380
0.002788	0.005350
0.002787	0.005320
0.002785	0.005289
0.002784	0.005259
0.002790	0.005229
0.002788	0.005199
0.002784	0.005170
0.002787	0.005140
0.002787	0.005110
0.002785	0.005079
0.002784	0.005049
0.002789	0.005019
0.002790	0.004988
0.002785	0.004960
0.002784	0.004930
0.002786	0.004900
0.002788	0.004869
0.002782	0.004839
0.002788	0.004809
0.002786	0.004779
0.002784	0.004750
0.002782	0.004720
0.002783	0.004689
0.002785	0.004659
0.002787	0.004629
0.002784	0.004599
0.002785	0.004568
0.002785	0.004540
0.002783	0.004510
0.002785	0.004480
0.002781	0.004449
0.002785	0.004419
0.002782	0.004389
0.002786	0.004359
0.002784	0.004330
0.002784	0.004300
0.002786	0.004269
0.002785	0.004239
0.002787	0.004209
0.002785	0.004179
0.002784	0.004150
0.002781	0.004120
0.002781	0.004090
0.002782	0.004059
0.002781	0.004029
0.002787	0.003999
0.002787	0.003969
0.002781	0.003940
0.002779	0.003910
0.002788	0.003880
0.002787	0.003849
0.002780	0.003819
0.002786	0.003789
0.002778	0.003759
0.002782	0.003725
0.002785	0.003695
0.002780	0.003664
0.002784	0.003634
0.002785	0.003604
0.002778	0.003574
0.002782	0.003544
0.002781	0.003515
0.002784	0.003485
0.002785	0.003454
0.002786	0.003424
0.002780	0.003394
0.002781	0.003364
0.002782	0.003333
0.002785	0.003305
0.002785	0.003275
0.002782	0.003244
0.002785	0.003214
0.002785	0.003184
0.002783	0.003154
0.002784	0.003125
0.002787	0.003095
0.002784	0.003065
0.002784	0.003034
0.002783	0.003004
0.002786	0.002974
0.002780	0.002944
0.002784	0.002915
0.002783	0.002885
0.002784	0.002854
0.002780	0.002824
0.002782	0.002794
0.002784	0.002764
0.002782	0.002734
0.002782	0.002705
0.002784	0.002675
0.002784	0.002645
0.002785	0.002614
0.002785	0.002584
0.002784	0.002553
0.002783	0.002523
0.002783	0.002495
0.002785	0.002464
0.002783	0.002434
0.002784	0.002404
0.002783	0.002374
0.002784	0.002344
0.002783	0.002313
0.002785	0.002285
0.002785	0.002255
0.002785	0.002224
0.002784	0.002194
0.002783	0.002164
0.002783	0.002133
0.002783	0.002103
0.002784	0.002075
0.002784	0.002044
0.002784	0.002014
0.002783	0.001984
0.002783	0.001954
0.002782	0.001924
0.002782	0.001895
0.002784	0.001865
0.002781	0.001834
0.002780	0.001804
0.002782	0.001774
0.002781	0.001744
0.002776	0.001713
0.002775	0.001685
0.002774	0.001654
0.002774	0.001624
0.002773	0.001594
0.002775	0.001564
0.002771	0.001533
0.002770	0.001504
0.002770	0.001475
0.002768	0.001445
0.002767	0.001414
0.002765	0.001384
0.002764	0.001354
0.002762	0.001324
0.002759	0.001293
0.002757	0.001265
0.002755	0.001229
0.002751	0.001199
0.002747	0.001169
0.002742	0.001139
0.002740	0.001108
0.002730	0.001078
0.002726	0.001050
0.002711	0.001020
0.002699	0.000989
0.002684	0.000959
0.002665	0.000929
0.002643	0.000899
0.002620	0.000870
0.002590	0.000839
0.002555	0.000809
0.002515	0.000779
0.002468	0.000749
0.002416	0.000718
0.002355	0.000688
0.002290	0.000660
0.002215	0.000630
0.002130	0.000599
0.002033	0.000569
0.001925	0.000539
0.001802	0.000509
0.001662	0.000478
0.001528	0.000450
0.001350	0.000420
0.001336	0.000389
0.001236	0.000359
0.000809	0.000329
0.000761	0.000298
0.000696	0.000268
0.000612	0.000240
3.224171E-6	0.000210
3.176941E-6	0.000179
3.153325E-6	0.000149
2.940727E-6	0.000119
3.058842E-6	8.957057E-5
2.787172E-6	6.072325E-5
2.610039E-6	3.684246E-5
6.105938E-6	1.942712E-5
