Voltage[V]	Current[A]	CoilCurrent[A]
2.326611E-6	-1.050313E-7
2.173105E-6	1.743959E-5
3.259662E-6	3.931985E-5
1.925080E-6	5.987376E-5
2.633707E-6	7.986784E-5
2.598270E-6	9.988344E-5
2.019571E-6	0.000120
3.047064E-6	0.000140
2.007746E-6	0.000160
2.503772E-6	0.000180
2.267565E-6	0.000200
2.680958E-6	0.000220
1.960503E-6	0.000240
2.610068E-6	0.000260
2.078614E-6	0.000280
2.432924E-6	0.000300
2.480161E-6	0.000320
2.739987E-6	0.000340
2.114029E-6	0.000360
2.680959E-6	0.000381
2.539220E-6	0.000401
2.232138E-6	0.000421
2.373861E-6	0.000441
2.102266E-6	0.000461
1.972319E-6	0.000481
2.161285E-6	0.000501
2.102235E-6	0.000521
2.598266E-6	0.000541
2.480161E-6	0.000561
1.984123E-6	0.000581
2.409302E-6	0.000601
2.102244E-6	0.000621
2.539226E-6	0.000641
2.527424E-6	0.000661
2.043182E-6	0.000681
2.468352E-6	0.000701
2.362060E-6	0.000721
2.362085E-6	0.000741
2.184926E-6	0.000761
2.515599E-6	0.000781
2.739986E-6	0.000801
2.409297E-6	0.000821
2.019568E-6	0.000841
2.338456E-6	0.000861
2.539216E-6	0.000882
2.125851E-6	0.000902
1.936907E-6	0.000922
2.480170E-6	0.000942
1.936884E-6	0.000962
2.054981E-6	0.000982
2.255758E-6	0.001002
2.350262E-6	0.001022
2.539255E-6	0.001042
1.972345E-6	0.001062
2.279408E-6	0.001082
2.243974E-6	0.001102
2.326644E-6	0.001122
2.350271E-6	0.001142
2.184925E-6	0.001162
3.200630E-6	0.001182
2.468378E-6	0.001202
2.350271E-6	0.001223
2.421124E-6	0.001243
2.373878E-6	0.001263
2.267581E-6	0.001283
2.751833E-6	0.001303
2.527426E-6	0.001322
3.106135E-6	0.001342
2.421126E-6	0.001362
2.055005E-6	0.001383
2.480194E-6	0.001403
2.751831E-6	0.001423
2.551060E-6	0.001443
2.503797E-6	0.001463
2.846295E-6	0.001483
2.657325E-6	0.001503
2.822688E-6	0.001523
2.373870E-6	0.001543
3.058893E-6	0.001563
2.539240E-6	0.001583
2.492005E-6	0.001603
2.338480E-6	0.001623
2.610115E-6	0.001644
2.480185E-6	0.001663
2.928977E-6	0.001683
2.822688E-6	0.001703
2.491995E-6	0.001723
2.515610E-6	0.001743
2.125886E-6	0.001763
2.787254E-6	0.001783
3.342355E-6	0.001803
2.680963E-6	0.001823
2.090428E-6	0.001843
2.539235E-6	0.001863
2.846315E-6	0.001884
2.232171E-6	0.001904
2.858103E-6	0.001924
3.070701E-6	0.001944
2.362081E-6	0.001964
2.940778E-6	0.001984
2.303017E-6	0.002004
2.220360E-6	0.002024
3.106152E-6	0.002044
2.551078E-6	0.002064
2.988039E-6	0.002084
3.295125E-6	0.002104
3.129762E-6	0.002124
2.917173E-6	0.002144
2.846315E-6	0.002164
3.389609E-6	0.002184
3.602194E-6	0.002204
2.515610E-6	0.002225
3.247860E-6	0.002245
2.999857E-6	0.002264
2.669158E-6	0.002285
2.751840E-6	0.002304
3.531310E-6	0.002325
3.011677E-6	0.002344
3.342351E-6	0.002364
3.188798E-6	0.002385
3.318739E-6	0.002405
2.669154E-6	0.002425
3.212432E-6	0.002445
2.716397E-6	0.002465
2.893543E-6	0.002485
3.212459E-6	0.002505
3.259673E-6	0.002525
3.070725E-6	0.002545
3.413223E-6	0.002565
2.881739E-6	0.002585
3.188812E-6	0.002605
3.082541E-6	0.002626
3.117970E-6	0.002645
3.011683E-6	0.002666
3.271507E-6	0.002685
3.425041E-6	0.002705
2.456578E-6	0.002725
3.495914E-6	0.002745
3.070703E-6	0.002765
3.106152E-6	0.002785
3.436835E-6	0.002805
3.365967E-6	0.002825
3.011690E-6	0.002845
2.657354E-6	0.002866
2.952629E-6	0.002886
2.929015E-6	0.002906
3.389614E-6	0.002926
3.625815E-6	0.002946
3.224261E-6	0.002966
4.050986E-6	0.002986
3.070714E-6	0.003006
3.578572E-6	0.003026
2.964429E-6	0.003046
2.822717E-6	0.003066
3.637628E-6	0.003086
2.704597E-6	0.003106
2.988058E-6	0.003126
3.991949E-6	0.003146
3.802976E-6	0.003166
3.885652E-6	0.003186
3.377814E-6	0.003207
3.011692E-6	0.003227
3.956515E-6	0.003247
2.988070E-6	0.003267
3.413226E-6	0.003287
3.342364E-6	0.003306
3.460464E-6	0.003326
2.846338E-6	0.003346
3.436857E-6	0.003366
3.259687E-6	0.003387
3.389630E-6	0.003407
3.625828E-6	0.003427
3.921084E-6	0.003447
2.964436E-6	0.003467
4.169089E-6	0.003487
3.909272E-6	0.003507
3.956509E-6	0.003527
3.413226E-6	0.003547
3.661258E-6	0.003567
3.909268E-6	0.003587
3.495903E-6	0.003607
3.720303E-6	0.003627
3.436844E-6	0.003647
3.295143E-6	0.003667
4.098240E-6	0.003687
3.684883E-6	0.003707
3.425061E-6	0.003727
3.921086E-6	0.003747
3.602210E-6	0.003767
3.153418E-6	0.003787
3.814794E-6	0.003807
3.566774E-6	0.003827
3.590405E-6	0.003847
3.389632E-6	0.003868
2.976269E-6	0.003888
3.625813E-6	0.003908
3.425042E-6	0.003928
4.228154E-6	0.003948
3.732117E-6	0.003968
3.814806E-6	0.003988
3.826623E-6	0.004008
3.236088E-6	0.004028
3.673071E-6	0.004048
3.873853E-6	0.004068
3.732153E-6	0.004088
3.826626E-6	0.004108
3.625857E-6	0.004128
3.460507E-6	0.004148
3.484136E-6	0.004168
3.271532E-6	0.004188
3.720319E-6	0.004208
3.625837E-6	0.004228
3.862038E-6	0.004248
3.802981E-6	0.004268
3.932899E-6	0.004288
4.263597E-6	0.004308
3.779365E-6	0.004328
3.885667E-6	0.004348
4.310834E-6	0.004368
4.428937E-6	0.004389
3.507736E-6	0.004409
3.318808E-6	0.004429
4.003803E-6	0.004449
4.180945E-6	0.004469
4.275427E-6	0.004489
4.086443E-6	0.004509
3.779382E-6	0.004529
3.909301E-6	0.004549
3.531366E-6	0.004569
3.495925E-6	0.004589
3.944713E-6	0.004609
3.755747E-6	0.004629
3.661267E-6	0.004649
4.322637E-6	0.004669
4.334457E-6	0.004689
4.535263E-6	0.004709
3.448702E-6	0.004729
4.086471E-6	0.004749
3.968353E-6	0.004769
3.743959E-6	0.004789
4.464371E-6	0.004809
3.980158E-6	0.004829
4.381694E-6	0.004849
4.169144E-6	0.004869
4.074640E-6	0.004890
3.389658E-6	0.004910
4.558864E-6	0.004930
4.263600E-6	0.004950
4.110077E-6	0.004970
4.239973E-6	0.004990
4.889553E-6	0.005010
3.826617E-6	0.005030
3.991992E-6	0.005050
4.192749E-6	0.005070
3.625837E-6	0.005090
4.216363E-6	0.005110
3.921110E-6	0.005130
4.523446E-6	0.005150
3.767585E-6	0.005170
3.897472E-6	0.005190
4.275425E-6	0.005210
4.795076E-6	0.005230
0.002778	0.005250
0.002777	0.005270
0.002778	0.005290
0.002778	0.005310
0.002777	0.005330
0.002778	0.005350
0.002779	0.005370
0.002778	0.005391
0.002776	0.005411
0.002778	0.005431
0.002778	0.005451
0.002777	0.005471
0.002778	0.005491
0.002778	0.005511
0.002777	0.005531
0.002777	0.005551
0.002779	0.005571
0.002779	0.005591
0.002778	0.005611
0.002778	0.005631
0.002780	0.005651
0.002779	0.005671
0.002779	0.005691
0.002778	0.005711
0.002779	0.005731
0.002781	0.005751
0.002779	0.005771
0.002779	0.005791
0.002781	0.005811
0.002779	0.005831
0.002780	0.005851
0.002779	0.005871
0.002778	0.005892
0.002781	0.005912
0.002780	0.005932
0.002780	0.005952
0.002780	0.005972
0.002780	0.005992
0.002779	0.006012
0.002779	0.006032
0.002781	0.006052
0.002780	0.006072
0.002780	0.006092
0.002780	0.006112
0.002781	0.006132
0.002780	0.006152
0.002782	0.006172
0.002781	0.006192
0.002781	0.006212
0.002782	0.006232
0.002781	0.006252
0.002781	0.006272
0.002783	0.006292
0.002781	0.006312
0.002782	0.006332
0.002783	0.006352
0.002781	0.006372
0.002782	0.006393
0.002782	0.006413
0.002783	0.006433
0.002781	0.006453
0.002783	0.006473
0.002784	0.006493
0.002783	0.006513
0.002783	0.006533
0.002782	0.006553
0.002782	0.006573
0.002782	0.006593
0.002782	0.006613
0.002783	0.006633
0.002785	0.006653
0.002784	0.006673
0.002783	0.006693
0.002783	0.006713
0.002784	0.006733
0.002784	0.006753
0.002784	0.006773
0.002784	0.006793
0.002789	0.006813
0.002784	0.006833
0.002787	0.006853
0.002785	0.006873
0.002784	0.006894
0.002787	0.006914
0.002785	0.006934
0.002785	0.006954
0.002787	0.006974
0.002785	0.006994
0.002787	0.007014
0.002785	0.007034
0.002787	0.007054
0.002787	0.007074
0.002786	0.007094
0.002787	0.007114
0.002788	0.007134
0.002788	0.007154
0.002788	0.007174
0.002789	0.007194
0.002790	0.007214
0.002789	0.007234
0.002789	0.007254
0.002787	0.007274
0.002790	0.007294
0.002790	0.007314
0.002790	0.007334
0.002790	0.007354
0.002792	0.007374
0.002791	0.007395
0.002792	0.007415
0.002790	0.007435
0.002790	0.007455
0.002790	0.007475
0.002792	0.007495
0.002791	0.007515
0.002792	0.007535
0.002792	0.007555
0.002793	0.007575
0.002795	0.007595
0.002794	0.007615
0.002794	0.007635
0.002794	0.007655
0.002795	0.007675
0.002795	0.007695
0.002794	0.007715
0.002795	0.007735
0.002797	0.007755
0.002798	0.007775
0.002799	0.007795
0.002800	0.007815
0.002801	0.007835
0.002808	0.007855
0.002805	0.007876
0.002807	0.007896
0.002808	0.007916
0.002807	0.007936
0.002810	0.007956
0.002809	0.007976
0.002810	0.007996
0.002808	0.008016
0.002811	0.008036
0.002812	0.008056
0.002812	0.008076
0.002814	0.008096
0.002813	0.008116
0.002814	0.008136
0.002814	0.008156
0.002816	0.008176
0.002812	0.008196
0.002816	0.008216
0.002818	0.008236
0.002816	0.008256
0.002815	0.008276
0.002815	0.008296
0.002820	0.008316
0.002816	0.008336
0.002819	0.008356
0.002820	0.008377
0.002821	0.008397
0.002819	0.008417
0.002821	0.008437
0.002822	0.008457
0.002823	0.008477
0.002822	0.008497
0.002826	0.008517
0.002827	0.008537
0.002827	0.008557
0.002828	0.008577
0.002829	0.008597
0.002830	0.008617
0.002831	0.008637
0.002832	0.008657
0.002832	0.008677
0.002835	0.008697
0.002835	0.008717
0.002836	0.008737
0.002837	0.008757
0.002839	0.008777
0.002841	0.008797
0.002841	0.008817
0.002843	0.008837
0.002844	0.008857
0.002846	0.008878
0.002848	0.008898
0.002850	0.008918
0.002852	0.008938
0.002854	0.008958
0.002856	0.008978
0.002858	0.008998
0.002860	0.009018
0.002863	0.009038
0.002866	0.009058
0.002870	0.009078
0.002872	0.009098
0.002875	0.009118
0.002878	0.009138
0.002883	0.009158
0.002887	0.009178
0.002892	0.009198
0.002896	0.009218
0.002899	0.009238
0.002905	0.009258
0.002910	0.009278
0.002917	0.009298
0.002920	0.009318
0.002925	0.009338
0.002933	0.009358
0.002936	0.009379
0.002944	0.009399
0.002948	0.009419
0.002955	0.009439
0.002960	0.009459
0.002970	0.009479
0.002973	0.009499
0.002978	0.009519
0.002985	0.009539
0.002991	0.009559
0.002996	0.009579
0.003001	0.009599
0.003009	0.009619
0.003017	0.009639
0.003020	0.009659
0.003025	0.009679
0.003030	0.009699
0.003038	0.009719
0.003043	0.009739
0.003048	0.009759
0.003055	0.009779
0.003061	0.009799
0.003066	0.009819
0.003071	0.009839
0.003078	0.009859
0.003084	0.009880
0.003089	0.009900
0.003094	0.009920
0.003102	0.009940
0.003105	0.009960
0.003110	0.009980
0.003116	0.010000
