Voltage[V]	Current[A]	CoilCurrent[A]
2.988014E-6	-1.032891E-7
2.999812E-6	1.744309E-5
2.527398E-6	3.931581E-5
2.303001E-6	5.987960E-5
2.598264E-6	7.987543E-5
2.728175E-6	9.988523E-5
3.035251E-6	0.000120
3.094330E-6	0.000140
2.574656E-6	0.000160
2.657342E-6	0.000180
2.480212E-6	0.000200
2.952604E-6	0.000220
2.586472E-6	0.000240
2.881716E-6	0.000260
2.669154E-6	0.000280
2.645520E-6	0.000300
2.763620E-6	0.000320
1.948738E-6	0.000340
2.090428E-6	0.000360
2.515600E-6	0.000381
2.633704E-6	0.000401
2.114051E-6	0.000421
2.362087E-6	0.000441
2.574669E-6	0.000461
1.995968E-6	0.000481
2.799075E-6	0.000501
2.432944E-6	0.000521
2.161298E-6	0.000541
2.090424E-6	0.000561
1.948709E-6	0.000581
1.984115E-6	0.000601
2.740013E-6	0.000621
2.161290E-6	0.000641
2.456540E-6	0.000661
2.149469E-6	0.000681
2.491972E-6	0.000701
2.137673E-6	0.000721
2.421106E-6	0.000741
2.409308E-6	0.000761
2.125855E-6	0.000781
2.385686E-6	0.000801
2.740002E-6	0.000821
2.621890E-6	0.000841
2.350263E-6	0.000861
2.338447E-6	0.000882
1.960512E-6	0.000902
3.011655E-6	0.000922
1.818818E-6	0.000942
2.243978E-6	0.000962
2.397497E-6	0.000982
2.858102E-6	0.001002
2.066794E-6	0.001022
2.527411E-6	0.001042
2.173098E-6	0.001062
2.680952E-6	0.001082
2.173110E-6	0.001102
2.881754E-6	0.001122
2.751853E-6	0.001142
2.137684E-6	0.001162
2.350280E-6	0.001182
2.621915E-6	0.001202
2.055001E-6	0.001223
1.818800E-6	0.001243
2.539222E-6	0.001263
2.810881E-6	0.001283
2.598294E-6	0.001303
2.810868E-6	0.001322
2.255792E-6	0.001342
2.078621E-6	0.001362
2.562858E-6	0.001383
2.846306E-6	0.001403
2.574676E-6	0.001423
2.669154E-6	0.001443
2.881752E-6	0.001463
2.539222E-6	0.001483
2.751805E-6	0.001503
2.491994E-6	0.001523
2.350273E-6	0.001543
2.810879E-6	0.001563
2.964400E-6	0.001583
2.621911E-6	0.001603
2.515610E-6	0.001623
2.232164E-6	0.001644
2.846291E-6	0.001663
2.964400E-6	0.001684
2.881741E-6	0.001703
2.692768E-6	0.001723
2.740013E-6	0.001743
2.220364E-6	0.001763
2.598304E-6	0.001783
2.763647E-6	0.001803
2.562889E-6	0.001823
2.846311E-6	0.001843
2.657376E-6	0.001863
3.236069E-6	0.001884
2.551065E-6	0.001904
2.893552E-6	0.001924
3.188856E-6	0.001944
2.917202E-6	0.001964
2.940811E-6	0.001984
3.129762E-6	0.002004
2.255811E-6	0.002024
2.810908E-6	0.002044
3.011679E-6	0.002064
2.929011E-6	0.002084
2.397530E-6	0.002104
3.177016E-6	0.002124
2.917164E-6	0.002144
3.177009E-6	0.002164
2.669167E-6	0.002184
3.011661E-6	0.002204
2.858151E-6	0.002225
3.011664E-6	0.002245
3.236053E-6	0.002264
2.940797E-6	0.002285
3.425033E-6	0.002304
2.999857E-6	0.002325
3.365976E-6	0.002344
2.810893E-6	0.002364
3.165182E-6	0.002385
3.035293E-6	0.002405
3.614021E-6	0.002425
3.330548E-6	0.002445
2.799090E-6	0.002465
3.696674E-6	0.002485
3.566758E-6	0.002505
3.023510E-6	0.002525
3.129759E-6	0.002545
3.259700E-6	0.002565
3.802979E-6	0.002585
3.200652E-6	0.002605
3.212455E-6	0.002626
3.531321E-6	0.002645
3.732091E-6	0.002666
3.271496E-6	0.002685
3.578562E-6	0.002705
2.952613E-6	0.002725
3.094339E-6	0.002745
3.625801E-6	0.002765
3.944691E-6	0.002785
3.283321E-6	0.002805
3.554982E-6	0.002825
3.850213E-6	0.002845
2.846373E-6	0.002866
3.153416E-6	0.002886
2.669176E-6	0.002906
4.003774E-6	0.002926
3.649438E-6	0.002946
3.318739E-6	0.002966
3.755720E-6	0.002986
2.751827E-6	0.003006
3.543142E-6	0.003026
3.554960E-6	0.003046
3.141609E-6	0.003066
3.921115E-6	0.003086
3.673065E-6	0.003106
3.507732E-6	0.003126
3.271496E-6	0.003146
3.554971E-6	0.003166
3.413234E-6	0.003186
3.460464E-6	0.003207
2.799085E-6	0.003227
3.850215E-6	0.003247
3.684880E-6	0.003267
3.436857E-6	0.003287
3.495912E-6	0.003306
3.389614E-6	0.003326
3.543159E-6	0.003346
3.117993E-6	0.003366
3.425059E-6	0.003387
3.330571E-6	0.003407
3.531368E-6	0.003427
3.484107E-6	0.003447
4.145479E-6	0.003467
3.212446E-6	0.003487
3.460471E-6	0.003507
3.956498E-6	0.003527
4.263604E-6	0.003547
4.251790E-6	0.003567
4.133679E-6	0.003587
3.602216E-6	0.003607
4.358062E-6	0.003627
3.850249E-6	0.003647
3.802990E-6	0.003667
3.932892E-6	0.003687
3.873873E-6	0.003707
3.980163E-6	0.003727
4.287225E-6	0.003747
3.425064E-6	0.003767
3.566780E-6	0.003787
4.039184E-6	0.003807
4.322634E-6	0.003827
3.980136E-6	0.003847
4.310845E-6	0.003868
4.299027E-6	0.003888
3.543155E-6	0.003908
3.956524E-6	0.003928
4.121886E-6	0.003948
4.145490E-6	0.003968
4.157291E-6	0.003988
4.121872E-6	0.004008
4.263600E-6	0.004028
4.169098E-6	0.004048
4.015563E-6	0.004068
3.956518E-6	0.004088
4.192725E-6	0.004108
4.121888E-6	0.004128
4.239982E-6	0.004148
4.535255E-6	0.004168
3.862053E-6	0.004188
3.791180E-6	0.004208
4.381713E-6	0.004228
3.803028E-6	0.004248
4.452568E-6	0.004268
4.299032E-6	0.004288
4.535230E-6	0.004308
3.720312E-6	0.004328
4.074633E-6	0.004348
3.944730E-6	0.004368
4.192745E-6	0.004389
4.405321E-6	0.004409
4.062831E-6	0.004429
4.192732E-6	0.004449
4.121875E-6	0.004469
3.814805E-6	0.004489
4.098254E-6	0.004509
4.393511E-6	0.004529
4.487989E-6	0.004549
4.369909E-6	0.004569
4.239982E-6	0.004589
4.476200E-6	0.004609
3.779372E-6	0.004629
4.771444E-6	0.004649
4.452568E-6	0.004669
4.263607E-6	0.004689
4.381705E-6	0.004709
4.476185E-6	0.004729
3.873865E-6	0.004749
4.523441E-6	0.004769
4.039201E-6	0.004789
4.724210E-6	0.004809
4.334464E-6	0.004829
4.842319E-6	0.004849
4.641541E-6	0.004869
4.157315E-6	0.004890
4.216390E-6	0.004910
4.393520E-6	0.004930
4.594287E-6	0.004950
4.582482E-6	0.004970
4.157308E-6	0.004990
4.783255E-6	0.005010
4.287231E-6	0.005030
3.708541E-6	0.005050
4.771466E-6	0.005070
4.216401E-6	0.005090
4.464397E-6	0.005110
4.405339E-6	0.005130
5.031276E-6	0.005150
4.830496E-6	0.005170
4.405329E-6	0.005190
4.405327E-6	0.005210
5.149392E-6	0.005230
0.002778	0.005250
0.002778	0.005270
0.002777	0.005290
0.002777	0.005310
0.002778	0.005330
0.002777	0.005350
0.002778	0.005370
0.002778	0.005391
0.002778	0.005411
0.002779	0.005431
0.002778	0.005451
0.002780	0.005471
0.002779	0.005491
0.002779	0.005511
0.002779	0.005531
0.002778	0.005551
0.002778	0.005571
0.002779	0.005591
0.002779	0.005611
0.002778	0.005631
0.002779	0.005651
0.002779	0.005671
0.002778	0.005691
0.002780	0.005711
0.002779	0.005731
0.002779	0.005751
0.002779	0.005771
0.002780	0.005791
0.002780	0.005811
0.002781	0.005831
0.002780	0.005851
0.002779	0.005871
0.002780	0.005892
0.002779	0.005912
0.002780	0.005932
0.002780	0.005952
0.002780	0.005972
0.002780	0.005992
0.002780	0.006012
0.002780	0.006032
0.002781	0.006052
0.002782	0.006072
0.002780	0.006092
0.002780	0.006112
0.002781	0.006132
0.002780	0.006152
0.002781	0.006172
0.002781	0.006192
0.002782	0.006212
0.002782	0.006232
0.002782	0.006252
0.002781	0.006272
0.002783	0.006292
0.002781	0.006312
0.002781	0.006332
0.002783	0.006352
0.002782	0.006372
0.002782	0.006393
0.002781	0.006413
0.002782	0.006433
0.002782	0.006453
0.002784	0.006473
0.002784	0.006493
0.002783	0.006513
0.002783	0.006533
0.002784	0.006553
0.002782	0.006573
0.002783	0.006593
0.002785	0.006613
0.002784	0.006633
0.002784	0.006653
0.002784	0.006673
0.002784	0.006693
0.002786	0.006713
0.002784	0.006733
0.002785	0.006753
0.002786	0.006773
0.002785	0.006793
0.002784	0.006813
0.002784	0.006833
0.002787	0.006853
0.002786	0.006873
0.002784	0.006894
0.002786	0.006914
0.002787	0.006934
0.002785	0.006954
0.002785	0.006974
0.002785	0.006994
0.002787	0.007014
0.002786	0.007034
0.002786	0.007054
0.002787	0.007074
0.002786	0.007094
0.002788	0.007114
0.002790	0.007134
0.002788	0.007154
0.002788	0.007174
0.002789	0.007194
0.002787	0.007214
0.002790	0.007234
0.002791	0.007254
0.002791	0.007274
0.002790	0.007294
0.002790	0.007314
0.002790	0.007334
0.002793	0.007354
0.002790	0.007374
0.002791	0.007395
0.002791	0.007415
0.002790	0.007435
0.002793	0.007455
0.002791	0.007475
0.002792	0.007495
0.002792	0.007515
0.002792	0.007535
0.002794	0.007555
0.002795	0.007575
0.002792	0.007595
0.002794	0.007615
0.002793	0.007635
0.002798	0.007655
0.002794	0.007675
0.002795	0.007695
0.002794	0.007715
0.002795	0.007735
0.002796	0.007755
0.002800	0.007775
0.002797	0.007795
0.002806	0.007815
0.002803	0.007835
0.002809	0.007855
0.002805	0.007876
0.002806	0.007896
0.002807	0.007916
0.002809	0.007936
0.002809	0.007956
0.002811	0.007976
0.002810	0.007996
0.002814	0.008016
0.002809	0.008036
0.002805	0.008056
0.002811	0.008076
0.002811	0.008096
0.002813	0.008116
0.002814	0.008136
0.002809	0.008156
0.002815	0.008176
0.002814	0.008196
0.002818	0.008216
0.002815	0.008236
0.002815	0.008256
0.002816	0.008276
0.002815	0.008296
0.002820	0.008316
0.002819	0.008336
0.002822	0.008356
0.002819	0.008377
0.002820	0.008397
0.002818	0.008417
0.002821	0.008437
0.002821	0.008457
0.002822	0.008477
0.002824	0.008497
0.002825	0.008517
0.002826	0.008537
0.002827	0.008557
0.002828	0.008577
0.002831	0.008597
0.002829	0.008617
0.002831	0.008637
0.002833	0.008657
0.002834	0.008677
0.002834	0.008697
0.002835	0.008717
0.002837	0.008737
0.002839	0.008757
0.002840	0.008777
0.002840	0.008797
0.002841	0.008817
0.002844	0.008837
0.002846	0.008857
0.002846	0.008878
0.002847	0.008898
0.002850	0.008918
0.002852	0.008938
0.002853	0.008958
0.002856	0.008978
0.002858	0.008998
0.002861	0.009018
0.002863	0.009038
0.002866	0.009058
0.002869	0.009078
0.002872	0.009098
0.002876	0.009118
0.002879	0.009138
0.002885	0.009158
0.002887	0.009178
0.002891	0.009198
0.002896	0.009218
0.002899	0.009238
0.002905	0.009258
0.002910	0.009278
0.002915	0.009298
0.002922	0.009318
0.002929	0.009338
0.002931	0.009358
0.002937	0.009379
0.002944	0.009399
0.002949	0.009419
0.002954	0.009439
0.002960	0.009459
0.002969	0.009479
0.002972	0.009499
0.002977	0.009519
0.002990	0.009539
0.002992	0.009559
0.002997	0.009579
0.003003	0.009599
0.003008	0.009619
0.003015	0.009639
0.003020	0.009659
0.003026	0.009679
0.003031	0.009699
0.003037	0.009719
0.003043	0.009739
0.003050	0.009759
0.003055	0.009779
0.003061	0.009799
0.003065	0.009819
0.003073	0.009839
0.003078	0.009859
0.003085	0.009880
0.003088	0.009900
0.003094	0.009920
0.003099	0.009940
0.003104	0.009960
0.003110	0.009980
0.003115	0.010000
