Voltage[V]	Current[A]	CoilCurrent[A]
2.456529E-6	-1.009662E-7
3.176996E-6	1.744830E-5
2.574674E-6	3.931866E-5
3.188794E-6	5.988537E-5
2.633697E-6	7.987426E-5
2.822642E-6	9.988470E-5
3.129704E-6	0.000120
2.598235E-6	0.000140
2.385650E-6	0.000160
2.539198E-6	0.000180
2.716377E-6	0.000200
3.082474E-6	0.000220
2.799023E-6	0.000240
2.515573E-6	0.000260
3.247844E-6	0.000280
2.881701E-6	0.000300
2.574619E-6	0.000320
2.539191E-6	0.000340
2.787201E-6	0.000360
2.633671E-6	0.000381
3.094290E-6	0.000401
2.893525E-6	0.000421
3.129713E-6	0.000441
2.751791E-6	0.000461
2.657322E-6	0.000481
2.976185E-6	0.000501
2.858083E-6	0.000521
3.035266E-6	0.000541
2.799052E-6	0.000561
2.728173E-6	0.000581
1.806979E-6	0.000601
2.255758E-6	0.000621
2.444714E-6	0.000641
2.208511E-6	0.000662
2.515597E-6	0.000681
2.669116E-6	0.000701
2.551020E-6	0.000721
2.149469E-6	0.000741
2.527400E-6	0.000761
2.527417E-6	0.000781
2.999828E-6	0.000801
2.362060E-6	0.000821
2.751804E-6	0.000841
2.692768E-6	0.000861
3.212432E-6	0.000882
3.023468E-6	0.000902
2.751805E-6	0.000922
3.106124E-6	0.000942
3.271456E-6	0.000962
2.952576E-6	0.000982
2.551044E-6	0.001002
2.846291E-6	0.001022
2.751789E-6	0.001042
2.184916E-6	0.001062
3.070676E-6	0.001082
2.468358E-6	0.001102
2.775434E-6	0.001122
2.728171E-6	0.001142
2.775441E-6	0.001162
2.338435E-6	0.001182
2.598263E-6	0.001202
2.881710E-6	0.001223
2.775425E-6	0.001243
2.905352E-6	0.001263
3.023457E-6	0.001283
2.551045E-6	0.001303
2.999814E-6	0.001322
2.716377E-6	0.001342
2.822666E-6	0.001362
3.117922E-6	0.001383
2.680943E-6	0.001403
2.917146E-6	0.001423
3.200597E-6	0.001443
3.259644E-6	0.001463
3.460431E-6	0.001483
3.306906E-6	0.001503
2.232160E-6	0.001523
3.448627E-6	0.001543
2.657325E-6	0.001563
2.869921E-6	0.001583
2.940773E-6	0.001603
2.621890E-6	0.001623
2.491992E-6	0.001644
2.326642E-6	0.001663
2.822679E-6	0.001684
3.295092E-6	0.001703
3.129746E-6	0.001723
2.988018E-6	0.001743
2.716382E-6	0.001763
3.425002E-6	0.001783
2.822693E-6	0.001803
2.527413E-6	0.001823
2.988021E-6	0.001843
3.472247E-6	0.001863
2.787252E-6	0.001884
3.236031E-6	0.001904
3.153375E-6	0.001924
3.484072E-6	0.001944
3.259660E-6	0.001964
3.094319E-6	0.001984
3.566729E-6	0.002004
3.802937E-6	0.002024
3.802939E-6	0.002044
3.389570E-6	0.002064
3.259662E-6	0.002084
2.799077E-6	0.002104
3.566738E-6	0.002124
3.035284E-6	0.002144
3.177003E-6	0.002164
3.200625E-6	0.002184
3.377792E-6	0.002204
2.976234E-6	0.002225
3.306912E-6	0.002245
3.897418E-6	0.002265
3.436824E-6	0.002285
3.389576E-6	0.002304
3.011666E-6	0.002325
3.306919E-6	0.002344
3.649411E-6	0.002364
3.212437E-6	0.002385
3.838421E-6	0.002405
3.472280E-6	0.002425
3.413214E-6	0.002445
3.779323E-6	0.002465
3.590370E-6	0.002485
3.531330E-6	0.002505
3.637604E-6	0.002525
3.720284E-6	0.002545
4.110021E-6	0.002565
4.228132E-6	0.002585
3.543122E-6	0.002605
4.074624E-6	0.002626
3.897436E-6	0.002645
3.425008E-6	0.002666
3.448626E-6	0.002685
3.578547E-6	0.002705
3.673033E-6	0.002725
3.495872E-6	0.002745
3.791141E-6	0.002765
3.495885E-6	0.002785
3.401394E-6	0.002805
3.578551E-6	0.002825
3.684860E-6	0.002845
3.909276E-6	0.002866
3.306934E-6	0.002886
3.637615E-6	0.002906
3.755726E-6	0.002926
3.897441E-6	0.002946
4.086394E-6	0.002966
3.826583E-6	0.002986
4.381669E-6	0.003006
3.377781E-6	0.003026
3.814770E-6	0.003046
3.826579E-6	0.003066
3.684849E-6	0.003086
3.531326E-6	0.003106
3.956480E-6	0.003126
3.909248E-6	0.003146
3.743917E-6	0.003166
4.299007E-6	0.003186
3.862020E-6	0.003207
3.873842E-6	0.003227
4.015557E-6	0.003247
3.684867E-6	0.003267
3.968329E-6	0.003286
4.322643E-6	0.003306
3.779352E-6	0.003326
3.590383E-6	0.003346
4.003763E-6	0.003366
3.802978E-6	0.003387
3.862002E-6	0.003407
4.405285E-6	0.003427
3.980114E-6	0.003447
4.074593E-6	0.003467
4.145464E-6	0.003487
3.814766E-6	0.003507
4.169084E-6	0.003527
4.050968E-6	0.003547
3.838399E-6	0.003567
3.944695E-6	0.003587
4.039173E-6	0.003607
4.015552E-6	0.003627
4.428914E-6	0.003647
3.826586E-6	0.003667
4.133686E-6	0.003687
4.050999E-6	0.003707
4.440761E-6	0.003727
4.428937E-6	0.003747
4.015570E-6	0.003767
3.743919E-6	0.003787
4.346241E-6	0.003807
4.417127E-6	0.003827
4.062818E-6	0.003847
4.062791E-6	0.003868
4.003761E-6	0.003888
4.558839E-6	0.003908
3.921077E-6	0.003928
4.511614E-6	0.003948
4.275402E-6	0.003968
4.204538E-6	0.003988
4.570658E-6	0.004008
4.665137E-6	0.004028
4.310818E-6	0.004048
4.464348E-6	0.004068
4.405314E-6	0.004088
3.673083E-6	0.004108
4.487993E-6	0.004128
4.440748E-6	0.004148
4.062815E-6	0.004168
4.133688E-6	0.004188
4.676947E-6	0.004208
4.322657E-6	0.004228
3.980136E-6	0.004248
3.944717E-6	0.004268
4.405310E-6	0.004288
4.216345E-6	0.004308
4.582460E-6	0.004328
4.381696E-6	0.004348
3.873844E-6	0.004368
4.547048E-6	0.004389
3.637650E-6	0.004409
4.854115E-6	0.004429
4.665148E-6	0.004449
4.405307E-6	0.004469
4.239973E-6	0.004489
4.676958E-6	0.004509
4.570649E-6	0.004529
4.216343E-6	0.004549
4.145488E-6	0.004569
4.865933E-6	0.004589
4.948586E-6	0.004609
4.948610E-6	0.004629
4.346281E-6	0.004649
4.676960E-6	0.004669
4.334484E-6	0.004689
4.299029E-6	0.004709
4.617908E-6	0.004729
4.299029E-6	0.004749
4.322645E-6	0.004769
4.877716E-6	0.004789
4.511614E-6	0.004809
4.523425E-6	0.004829
4.901358E-6	0.004849
4.511616E-6	0.004869
4.570657E-6	0.004890
4.405312E-6	0.004910
4.523412E-6	0.004930
4.334483E-6	0.004950
4.771440E-6	0.004970
4.854121E-6	0.004990
4.865917E-6	0.005010
4.310821E-6	0.005030
4.889534E-6	0.005050
4.688765E-6	0.005070
5.208418E-6	0.005090
4.795054E-6	0.005110
4.724196E-6	0.005130
4.830505E-6	0.005150
5.078518E-6	0.005170
4.865928E-6	0.005190
5.338341E-6	0.005210
5.113941E-6	0.005230
4.428957E-6	0.005250
4.287229E-6	0.005270
4.346284E-6	0.005290
4.759642E-6	0.005310
4.960433E-6	0.005330
4.854124E-6	0.005350
5.031265E-6	0.005370
4.582504E-6	0.005391
4.606107E-6	0.005411
4.535263E-6	0.005431
4.310843E-6	0.005451
4.452570E-6	0.005471
5.172995E-6	0.005491
4.145508E-6	0.005511
5.302929E-6	0.005531
5.421020E-6	0.005551
4.712392E-6	0.005571
4.558888E-6	0.005591
4.428963E-6	0.005611
4.830514E-6	0.005631
4.806880E-6	0.005651
5.066719E-6	0.005671
4.842324E-6	0.005691
4.889553E-6	0.005711
0.002779	0.005731
0.002779	0.005751
0.002779	0.005771
0.002780	0.005791
0.002780	0.005811
0.002781	0.005831
0.002779	0.005851
0.002779	0.005871
0.002780	0.005892
0.002780	0.005912
0.002781	0.005932
0.002780	0.005952
0.002781	0.005972
0.002782	0.005992
0.002782	0.006012
0.002780	0.006032
0.002781	0.006052
0.002780	0.006072
0.002781	0.006092
0.002781	0.006112
0.002781	0.006132
0.002781	0.006152
0.002781	0.006172
0.002781	0.006192
0.002783	0.006212
0.002781	0.006232
0.002781	0.006252
0.002784	0.006272
0.002782	0.006292
0.002783	0.006312
0.002781	0.006332
0.002783	0.006352
0.002781	0.006372
0.002782	0.006393
0.002782	0.006413
0.002786	0.006433
0.002782	0.006453
0.002783	0.006473
0.002783	0.006493
0.002783	0.006513
0.002786	0.006533
0.002783	0.006553
0.002783	0.006573
0.002784	0.006593
0.002784	0.006613
0.002783	0.006633
0.002783	0.006653
0.002783	0.006673
0.002783	0.006693
0.002784	0.006713
0.002785	0.006733
0.002784	0.006753
0.002784	0.006773
0.002785	0.006793
0.002788	0.006813
0.002785	0.006833
0.002784	0.006853
0.002786	0.006873
0.002786	0.006894
0.002787	0.006914
0.002787	0.006934
0.002787	0.006954
0.002786	0.006974
0.002787	0.006994
0.002789	0.007014
0.002787	0.007034
0.002787	0.007054
0.002789	0.007074
0.002787	0.007094
0.002788	0.007114
0.002787	0.007134
0.002788	0.007154
0.002789	0.007174
0.002787	0.007194
0.002789	0.007214
0.002787	0.007234
0.002788	0.007254
0.002788	0.007274
0.002792	0.007294
0.002791	0.007314
0.002791	0.007334
0.002789	0.007354
0.002789	0.007374
0.002789	0.007395
0.002791	0.007415
0.002792	0.007435
0.002791	0.007455
0.002793	0.007475
0.002790	0.007495
0.002792	0.007515
0.002793	0.007535
0.002794	0.007555
0.002793	0.007575
0.002793	0.007595
0.002795	0.007615
0.002795	0.007635
0.002794	0.007655
0.002794	0.007675
0.002794	0.007695
0.002795	0.007715
0.002795	0.007735
0.002795	0.007755
0.002807	0.007775
0.002804	0.007795
0.002807	0.007815
0.002806	0.007835
0.002808	0.007855
0.002809	0.007876
0.002807	0.007896
0.002808	0.007916
0.002808	0.007936
0.002810	0.007956
0.002809	0.007976
0.002808	0.007996
0.002810	0.008016
0.002807	0.008036
0.002811	0.008056
0.002812	0.008076
0.002811	0.008096
0.002810	0.008116
0.002807	0.008136
0.002812	0.008156
0.002814	0.008176
0.002812	0.008196
0.002814	0.008216
0.002815	0.008236
0.002817	0.008256
0.002816	0.008276
0.002815	0.008296
0.002817	0.008316
0.002819	0.008336
0.002817	0.008356
0.002819	0.008377
0.002818	0.008397
0.002821	0.008417
0.002821	0.008437
0.002818	0.008457
0.002822	0.008477
0.002821	0.008497
0.002824	0.008517
0.002827	0.008537
0.002829	0.008557
0.002828	0.008577
0.002827	0.008597
0.002828	0.008617
0.002829	0.008637
0.002832	0.008657
0.002834	0.008677
0.002833	0.008697
0.002835	0.008717
0.002836	0.008737
0.002836	0.008757
0.002839	0.008777
0.002839	0.008797
0.002841	0.008817
0.002844	0.008837
0.002845	0.008857
0.002846	0.008878
0.002846	0.008898
0.002850	0.008918
0.002851	0.008938
0.002854	0.008958
0.002856	0.008978
0.002858	0.008998
0.002861	0.009018
0.002864	0.009038
0.002867	0.009058
0.002869	0.009078
0.002872	0.009098
0.002877	0.009118
0.002881	0.009138
0.002882	0.009158
0.002887	0.009178
0.002892	0.009198
0.002897	0.009218
0.002900	0.009238
0.002906	0.009258
0.002910	0.009278
0.002915	0.009298
0.002922	0.009318
0.002928	0.009338
0.002933	0.009358
0.002938	0.009379
0.002943	0.009399
0.002947	0.009419
0.002955	0.009439
0.002961	0.009459
0.002966	0.009479
0.002973	0.009499
0.002980	0.009519
0.002985	0.009539
0.002992	0.009559
0.002998	0.009579
0.003003	0.009599
0.003007	0.009619
0.003017	0.009639
0.003021	0.009659
0.003027	0.009679
0.003032	0.009699
0.003037	0.009719
0.003044	0.009739
0.003049	0.009759
0.003055	0.009779
0.003062	0.009799
0.003065	0.009819
0.003072	0.009839
0.003077	0.009859
0.003083	0.009880
0.003088	0.009900
0.003094	0.009920
0.003098	0.009940
0.003105	0.009960
0.003111	0.009980
0.003116	0.010000
