Voltage[V]	Current[A]	CoilCurrent[A]
2.881712E-6	-1.044506E-7
3.318723E-6	1.743900E-5
3.058907E-6	3.931517E-5
3.058889E-6	5.987780E-5
3.141560E-6	7.986724E-5
3.259656E-6	9.988168E-5
2.633704E-6	0.000120
3.259653E-6	0.000140
3.047071E-6	0.000160
3.283274E-6	0.000180
3.318723E-6	0.000200
2.775430E-6	0.000220
2.952591E-6	0.000240
2.586472E-6	0.000260
3.365951E-6	0.000280
2.822691E-6	0.000300
2.692777E-6	0.000320
3.354138E-6	0.000340
2.728209E-6	0.000360
2.917159E-6	0.000381
2.834502E-6	0.000401
3.295114E-6	0.000421
2.692761E-6	0.000441
2.952591E-6	0.000461
2.988038E-6	0.000481
2.940802E-6	0.000501
2.976223E-6	0.000521
2.834508E-6	0.000541
3.106157E-6	0.000561
3.165207E-6	0.000581
3.176998E-6	0.000601
3.566758E-6	0.000621
2.881729E-6	0.000641
2.964402E-6	0.000661
3.188794E-6	0.000681
3.684840E-6	0.000701
3.153391E-6	0.000721
3.543119E-6	0.000741
3.472262E-6	0.000761
3.117942E-6	0.000781
3.247871E-6	0.000801
3.826575E-6	0.000821
3.342335E-6	0.000841
3.141575E-6	0.000861
3.484081E-6	0.000882
3.283289E-6	0.000902
3.141575E-6	0.000922
2.822710E-6	0.000942
2.692765E-6	0.000962
2.740006E-6	0.000982
2.680952E-6	0.001002
3.460451E-6	0.001022
3.141582E-6	0.001042
3.590367E-6	0.001062
3.023479E-6	0.001082
3.354166E-6	0.001102
3.177001E-6	0.001122
3.885629E-6	0.001142
3.129770E-6	0.001162
3.649437E-6	0.001182
2.952600E-6	0.001202
3.259687E-6	0.001223
3.224237E-6	0.001243
2.928991E-6	0.001263
3.106157E-6	0.001283
3.554960E-6	0.001303
3.377787E-6	0.001322
3.200636E-6	0.001342
3.495878E-6	0.001362
3.625795E-6	0.001383
3.862031E-6	0.001403
3.047096E-6	0.001423
3.495914E-6	0.001443
3.649438E-6	0.001463
3.885629E-6	0.001483
3.838390E-6	0.001503
3.897449E-6	0.001523
3.720294E-6	0.001543
3.436831E-6	0.001563
3.897445E-6	0.001583
3.826575E-6	0.001603
3.637637E-6	0.001623
3.188828E-6	0.001644
3.141598E-6	0.001663
4.157278E-6	0.001684
3.011683E-6	0.001703
3.401419E-6	0.001723
3.684876E-6	0.001743
3.177018E-6	0.001763
3.236046E-6	0.001783
3.236055E-6	0.001803
3.743919E-6	0.001823
3.554987E-6	0.001843
3.696678E-6	0.001863
3.094377E-6	0.001884
3.850215E-6	0.001904
4.511583E-6	0.001924
3.165203E-6	0.001944
3.401437E-6	0.001964
3.177014E-6	0.001984
4.369880E-6	0.002004
3.602185E-6	0.002024
3.661260E-6	0.002044
3.259724E-6	0.002064
3.755729E-6	0.002084
3.365982E-6	0.002104
3.708503E-6	0.002124
3.802988E-6	0.002144
3.684898E-6	0.002164
3.625864E-6	0.002184
3.554953E-6	0.002204
3.944695E-6	0.002225
3.590376E-6	0.002245
3.814794E-6	0.002265
3.614037E-6	0.002285
3.720314E-6	0.002304
3.649442E-6	0.002325
3.578574E-6	0.002344
3.838401E-6	0.002364
3.153398E-6	0.002385
3.802979E-6	0.002405
3.413228E-6	0.002425
3.673067E-6	0.002445
3.554960E-6	0.002465
3.637650E-6	0.002485
3.838411E-6	0.002505
4.062804E-6	0.002525
4.346261E-6	0.002545
4.381700E-6	0.002565
3.803003E-6	0.002585
3.720341E-6	0.002605
3.767558E-6	0.002626
3.283325E-6	0.002645
4.133686E-6	0.002666
4.157331E-6	0.002685
3.791183E-6	0.002705
3.944713E-6	0.002725
4.157291E-6	0.002745
3.673071E-6	0.002765
4.180931E-6	0.002785
3.649442E-6	0.002805
3.909270E-6	0.002825
4.145493E-6	0.002845
4.192727E-6	0.002866
3.873854E-6	0.002886
4.287216E-6	0.002906
3.803005E-6	0.002926
3.732128E-6	0.002946
4.476184E-6	0.002966
3.673071E-6	0.002986
4.098241E-6	0.003006
4.842293E-6	0.003026
0.002780	0.003046
0.002783	0.003066
0.002778	0.003086
0.002778	0.003106
0.002782	0.003126
0.002781	0.003146
0.002783	0.003166
0.002780	0.003186
0.002778	0.003207
0.002781	0.003227
0.002781	0.003247
0.002782	0.003267
0.002781	0.003286
0.002782	0.003306
0.002781	0.003326
0.002780	0.003346
0.002779	0.003366
0.002781	0.003387
0.002782	0.003407
0.002781	0.003427
0.002777	0.003447
0.002780	0.003467
0.002781	0.003487
0.002780	0.003507
0.002781	0.003527
0.002781	0.003547
0.002780	0.003567
0.002782	0.003587
0.002781	0.003607
0.002781	0.003627
0.002781	0.003647
0.002781	0.003667
0.002781	0.003687
0.002780	0.003707
0.002785	0.003727
0.002780	0.003747
0.002780	0.003767
0.002788	0.003787
0.002782	0.003807
0.002776	0.003827
0.002778	0.003847
0.002781	0.003868
0.002780	0.003888
0.002782	0.003908
0.002782	0.003928
0.002782	0.003948
0.002783	0.003968
0.002780	0.003988
0.002777	0.004008
0.002781	0.004028
0.002785	0.004048
0.002782	0.004068
0.002784	0.004088
0.002778	0.004108
0.002782	0.004128
0.002782	0.004148
0.002779	0.004168
0.002783	0.004188
0.002783	0.004208
0.002777	0.004228
0.002785	0.004248
0.002785	0.004268
0.002778	0.004288
0.002777	0.004308
0.002776	0.004328
0.002780	0.004348
0.002784	0.004368
0.002779	0.004389
0.002777	0.004409
0.002777	0.004429
0.002778	0.004449
0.002781	0.004469
0.002782	0.004489
0.002791	0.004509
0.002776	0.004529
0.002780	0.004549
0.002791	0.004569
0.002784	0.004589
0.002777	0.004609
0.002778	0.004629
0.002775	0.004649
0.002777	0.004669
0.002778	0.004689
0.002777	0.004709
0.002787	0.004729
0.002777	0.004749
0.002777	0.004769
0.002777	0.004789
0.002777	0.004809
0.002778	0.004829
0.002777	0.004849
0.002782	0.004869
0.002777	0.004890
0.002777	0.004910
0.002776	0.004930
0.002777	0.004950
0.002778	0.004970
0.002778	0.004990
0.002776	0.005010
0.002777	0.005030
0.002778	0.005050
0.002777	0.005070
0.002777	0.005090
0.002777	0.005110
0.002778	0.005130
0.002777	0.005150
0.002778	0.005170
0.002777	0.005190
0.002777	0.005210
0.002778	0.005230
0.002778	0.005250
0.002778	0.005270
0.002778	0.005290
0.002778	0.005310
0.002778	0.005330
0.002778	0.005350
0.002779	0.005370
0.002778	0.005391
0.002779	0.005411
0.002778	0.005431
0.002777	0.005451
0.002777	0.005471
0.002779	0.005491
0.002779	0.005511
0.002779	0.005531
0.002778	0.005551
0.002778	0.005571
0.002779	0.005591
0.002779	0.005611
0.002779	0.005631
0.002779	0.005651
0.002779	0.005671
0.002779	0.005691
0.002779	0.005711
0.002780	0.005731
0.002779	0.005751
0.002779	0.005771
0.002779	0.005791
0.002780	0.005811
0.002780	0.005831
0.002781	0.005851
0.002780	0.005871
0.002779	0.005892
0.002779	0.005912
0.002780	0.005932
0.002783	0.005952
0.002780	0.005972
0.002781	0.005992
0.002780	0.006012
0.002780	0.006032
0.002780	0.006052
0.002780	0.006072
0.002780	0.006092
0.002781	0.006112
0.002781	0.006132
0.002781	0.006152
0.002782	0.006172
0.002780	0.006192
0.002781	0.006213
0.002788	0.006232
0.002781	0.006252
0.002781	0.006272
0.002781	0.006292
0.002782	0.006312
0.002781	0.006332
0.002781	0.006352
0.002781	0.006372
0.002783	0.006393
0.002782	0.006413
0.002783	0.006433
0.002784	0.006453
0.002783	0.006473
0.002782	0.006493
0.002783	0.006513
0.002783	0.006533
0.002785	0.006553
0.002784	0.006573
0.002784	0.006593
0.002783	0.006613
0.002784	0.006633
0.002785	0.006653
0.002784	0.006673
0.002784	0.006693
0.002784	0.006713
0.002785	0.006733
0.002784	0.006753
0.002784	0.006773
0.002785	0.006793
0.002788	0.006813
0.002784	0.006833
0.002786	0.006853
0.002784	0.006873
0.002786	0.006894
0.002787	0.006914
0.002786	0.006934
0.002788	0.006954
0.002785	0.006974
0.002787	0.006994
0.002787	0.007014
0.002787	0.007034
0.002788	0.007054
0.002786	0.007074
0.002787	0.007094
0.002787	0.007114
0.002787	0.007134
0.002787	0.007154
0.002786	0.007174
0.002789	0.007194
0.002790	0.007214
0.002789	0.007234
0.002790	0.007254
0.002789	0.007274
0.002788	0.007294
0.002790	0.007314
0.002790	0.007334
0.002790	0.007354
0.002791	0.007374
0.002789	0.007395
0.002791	0.007415
0.002789	0.007435
0.002789	0.007455
0.002793	0.007475
0.002791	0.007495
0.002794	0.007515
0.002793	0.007535
0.002791	0.007555
0.002792	0.007575
0.002793	0.007595
0.002794	0.007615
0.002794	0.007635
0.002794	0.007655
0.002795	0.007675
0.002794	0.007695
0.002796	0.007715
0.002794	0.007735
0.002798	0.007755
0.002803	0.007775
0.002801	0.007795
0.002804	0.007815
0.002804	0.007835
0.002803	0.007855
0.002806	0.007876
0.002806	0.007896
0.002809	0.007916
0.002807	0.007936
0.002809	0.007956
0.002810	0.007976
0.002808	0.007996
0.002809	0.008016
0.002811	0.008036
0.002810	0.008056
0.002809	0.008076
0.002813	0.008096
0.002812	0.008116
0.002813	0.008136
0.002814	0.008156
0.002815	0.008176
0.002813	0.008196
0.002815	0.008216
0.002816	0.008236
0.002813	0.008256
0.002817	0.008276
0.002817	0.008296
0.002818	0.008316
0.002818	0.008336
0.002819	0.008356
0.002821	0.008377
0.002818	0.008397
0.002819	0.008417
0.002818	0.008437
0.002821	0.008457
0.002823	0.008477
0.002824	0.008497
0.002825	0.008517
0.002826	0.008537
0.002827	0.008557
0.002825	0.008577
0.002828	0.008597
0.002828	0.008617
0.002832	0.008637
0.002831	0.008657
0.002829	0.008677
0.002834	0.008697
0.002832	0.008717
0.002836	0.008737
0.002837	0.008757
0.002839	0.008777
0.002840	0.008797
0.002841	0.008817
0.002842	0.008837
0.002844	0.008857
0.002847	0.008878
0.002849	0.008898
0.002850	0.008918
0.002852	0.008938
0.002853	0.008958
0.002856	0.008978
0.002858	0.008998
0.002861	0.009018
0.002863	0.009038
0.002865	0.009058
0.002869	0.009078
0.002873	0.009098
0.002876	0.009118
0.002881	0.009138
0.002883	0.009158
0.002886	0.009178
0.002891	0.009198
0.002898	0.009218
0.002899	0.009238
0.002905	0.009258
0.002912	0.009278
0.002915	0.009298
0.002921	0.009318
0.002927	0.009338
0.002933	0.009358
0.002934	0.009379
0.002944	0.009399
0.002950	0.009419
0.002955	0.009439
0.002961	0.009459
0.002965	0.009479
0.002972	0.009499
0.002978	0.009519
0.002985	0.009539
0.002991	0.009559
0.002998	0.009579
0.003001	0.009599
0.003008	0.009619
0.003014	0.009639
0.003019	0.009659
0.003027	0.009679
0.003032	0.009699
0.003037	0.009719
0.003043	0.009739
0.003050	0.009759
0.003055	0.009779
0.003059	0.009799
0.003065	0.009819
0.003073	0.009839
0.003078	0.009859
0.003083	0.009880
0.003090	0.009900
0.003094	0.009920
0.003098	0.009940
0.003105	0.009960
0.003111	0.009980
0.003115	0.010000
