Voltage[V]	Current[A]	CoilCurrent[A]
3.354136E-6	-1.027084E-7
2.598281E-6	1.745004E-5
2.562838E-6	3.932683E-5
2.397497E-6	5.987956E-5
2.303010E-6	7.987135E-5
2.078616E-6	9.988807E-5
2.858109E-6	0.000120
2.645525E-6	0.000140
2.196710E-6	0.000160
2.810853E-6	0.000180
2.940764E-6	0.000200
2.787245E-6	0.000220
2.562834E-6	0.000240
2.633704E-6	0.000260
3.259660E-6	0.000280
2.928979E-6	0.000300
2.834495E-6	0.000320
3.153362E-6	0.000340
2.161292E-6	0.000360
2.515599E-6	0.000381
2.184930E-6	0.000401
2.751816E-6	0.000421
2.645513E-6	0.000441
2.799055E-6	0.000461
2.905348E-6	0.000481
2.539240E-6	0.000501
2.291210E-6	0.000521
2.539255E-6	0.000541
3.047087E-6	0.000561
2.362078E-6	0.000581
2.669140E-6	0.000601
2.326638E-6	0.000621
2.810868E-6	0.000641
2.846302E-6	0.000662
2.421120E-6	0.000681
2.527428E-6	0.000701
2.999841E-6	0.000721
2.740020E-6	0.000741
3.094330E-6	0.000761
2.432951E-6	0.000781
1.984148E-6	0.000801
2.303033E-6	0.000821
3.058898E-6	0.000841
2.338445E-6	0.000861
2.633720E-6	0.000882
2.763622E-6	0.000902
2.480167E-6	0.000922
2.988018E-6	0.000942
2.421122E-6	0.000962
2.869927E-6	0.000982
2.444747E-6	0.001002
3.141564E-6	0.001022
2.338458E-6	0.001042
3.141562E-6	0.001062
2.704573E-6	0.001082
2.468370E-6	0.001102
2.858111E-6	0.001122
2.621919E-6	0.001142
2.799061E-6	0.001162
2.586487E-6	0.001182
3.070751E-6	0.001202
2.740031E-6	0.001223
2.834542E-6	0.001243
2.881763E-6	0.001263
2.456571E-6	0.001283
2.208571E-6	0.001303
2.397514E-6	0.001322
2.763640E-6	0.001342
3.401408E-6	0.001362
3.165191E-6	0.001383
3.035266E-6	0.001403
2.669156E-6	0.001423
3.247858E-6	0.001443
3.271492E-6	0.001463
3.247880E-6	0.001483
2.952627E-6	0.001503
2.928988E-6	0.001523
3.413239E-6	0.001543
2.799079E-6	0.001563
2.940826E-6	0.001583
3.141597E-6	0.001603
3.011673E-6	0.001623
2.881758E-6	0.001644
3.058922E-6	0.001663
2.893585E-6	0.001683
3.035304E-6	0.001703
3.153387E-6	0.001723
2.633740E-6	0.001743
2.905374E-6	0.001763
3.106143E-6	0.001783
2.928995E-6	0.001803
3.023473E-6	0.001823
2.173159E-6	0.001843
3.094352E-6	0.001863
3.224277E-6	0.001884
3.011690E-6	0.001904
3.177031E-6	0.001924
2.751838E-6	0.001944
2.799092E-6	0.001964
2.669200E-6	0.001984
3.566771E-6	0.002004
2.834524E-6	0.002024
2.657343E-6	0.002044
3.058902E-6	0.002064
3.283301E-6	0.002084
3.472271E-6	0.002104
3.720294E-6	0.002124
3.543128E-6	0.002144
3.283314E-6	0.002164
2.846340E-6	0.002184
3.661240E-6	0.002204
3.389627E-6	0.002225
3.614010E-6	0.002245
3.531353E-6	0.002264
3.094347E-6	0.002285
3.106174E-6	0.002304
3.200645E-6	0.002325
3.342382E-6	0.002344
4.062809E-6	0.002364
3.720306E-6	0.002385
3.047106E-6	0.002405
3.531330E-6	0.002425
3.354193E-6	0.002445
4.003743E-6	0.002465
3.684872E-6	0.002485
3.921064E-6	0.002505
3.460495E-6	0.002525
3.578607E-6	0.002545
3.413244E-6	0.002565
4.062802E-6	0.002585
3.177018E-6	0.002605
3.330550E-6	0.002626
3.554964E-6	0.002645
4.027364E-6	0.002666
3.212461E-6	0.002685
3.708496E-6	0.002705
4.062818E-6	0.002725
3.578589E-6	0.002745
3.661273E-6	0.002765
3.755742E-6	0.002785
3.507743E-6	0.002805
3.377818E-6	0.002825
3.909299E-6	0.002845
3.318768E-6	0.002866
3.590401E-6	0.002886
3.909274E-6	0.002906
2.869969E-6	0.002926
4.098247E-6	0.002946
3.791180E-6	0.002966
3.590405E-6	0.002986
3.531346E-6	0.003006
4.275436E-6	0.003026
3.554969E-6	0.003046
4.110048E-6	0.003066
4.015585E-6	0.003086
3.944706E-6	0.003106
3.944713E-6	0.003126
3.826617E-6	0.003146
4.535234E-6	0.003166
3.885665E-6	0.003186
3.944731E-6	0.003207
3.460504E-6	0.003227
4.594285E-6	0.003247
3.743919E-6	0.003267
3.519524E-6	0.003287
4.310838E-6	0.003306
3.531346E-6	0.003326
3.696712E-6	0.003346
3.980147E-6	0.003366
4.346264E-6	0.003387
3.909265E-6	0.003407
3.767544E-6	0.003427
4.346261E-6	0.003447
3.897479E-6	0.003467
4.558851E-6	0.003487
3.661258E-6	0.003507
3.366000E-6	0.003527
4.452573E-6	0.003547
4.428963E-6	0.003567
3.826626E-6	0.003587
3.755751E-6	0.003607
4.062817E-6	0.003627
4.322657E-6	0.003647
4.003770E-6	0.003667
4.015581E-6	0.003687
4.783255E-6	0.003707
4.547052E-6	0.003727
3.472313E-6	0.003747
3.826630E-6	0.003767
4.062838E-6	0.003787
4.263602E-6	0.003807
4.334463E-6	0.003827
4.299045E-6	0.003847
3.637682E-6	0.003868
4.204552E-6	0.003888
4.759655E-6	0.003908
4.110077E-6	0.003928
4.724207E-6	0.003948
4.039215E-6	0.003968
3.684907E-6	0.003988
4.724217E-6	0.004008
4.854131E-6	0.004028
4.180922E-6	0.004048
4.428950E-6	0.004068
3.507737E-6	0.004088
4.169120E-6	0.004108
4.535255E-6	0.004128
3.944746E-6	0.004148
4.098256E-6	0.004168
4.027404E-6	0.004188
4.346271E-6	0.004208
4.440755E-6	0.004228
4.003783E-6	0.004248
4.121879E-6	0.004268
4.346275E-6	0.004288
3.767613E-6	0.004308
4.700592E-6	0.004328
4.051028E-6	0.004348
4.239993E-6	0.004368
4.310854E-6	0.004389
4.724223E-6	0.004409
4.913176E-6	0.004429
4.322670E-6	0.004449
4.948643E-6	0.004469
0.002776	0.004489
0.002778	0.004509
0.002777	0.004529
0.002776	0.004549
0.002776	0.004569
0.002779	0.004589
0.002777	0.004609
0.002776	0.004629
0.002776	0.004649
0.002784	0.004669
0.002778	0.004689
0.002781	0.004709
0.002775	0.004729
0.002778	0.004749
0.002778	0.004769
0.002777	0.004789
0.002776	0.004809
0.002775	0.004829
0.002777	0.004849
0.002775	0.004870
0.002776	0.004890
0.002777	0.004910
0.002778	0.004930
0.002777	0.004950
0.002778	0.004970
0.002776	0.004990
0.002775	0.005010
0.002776	0.005030
0.002777	0.005050
0.002778	0.005070
0.002777	0.005090
0.002778	0.005110
0.002776	0.005130
0.002778	0.005150
0.002778	0.005170
0.002777	0.005190
0.002778	0.005210
0.002778	0.005230
0.002777	0.005250
0.002778	0.005270
0.002778	0.005290
0.002778	0.005310
0.002777	0.005330
0.002779	0.005350
0.002779	0.005370
0.002779	0.005391
0.002779	0.005411
0.002778	0.005431
0.002777	0.005451
0.002778	0.005471
0.002779	0.005491
0.002779	0.005511
0.002778	0.005531
0.002778	0.005551
0.002778	0.005571
0.002779	0.005591
0.002779	0.005611
0.002779	0.005631
0.002779	0.005651
0.002780	0.005671
0.002780	0.005691
0.002779	0.005711
0.002779	0.005731
0.002779	0.005751
0.002780	0.005771
0.002779	0.005791
0.002779	0.005811
0.002779	0.005831
0.002780	0.005851
0.002780	0.005871
0.002780	0.005892
0.002781	0.005912
0.002780	0.005932
0.002782	0.005952
0.002780	0.005972
0.002780	0.005992
0.002781	0.006012
0.002780	0.006032
0.002781	0.006052
0.002781	0.006072
0.002781	0.006092
0.002780	0.006112
0.002782	0.006132
0.002780	0.006152
0.002781	0.006172
0.002782	0.006192
0.002780	0.006212
0.002783	0.006232
0.002782	0.006252
0.002781	0.006272
0.002781	0.006292
0.002784	0.006312
0.002782	0.006332
0.002781	0.006352
0.002781	0.006372
0.002781	0.006393
0.002790	0.006413
0.002782	0.006433
0.002783	0.006453
0.002784	0.006473
0.002784	0.006493
0.002782	0.006513
0.002783	0.006533
0.002784	0.006553
0.002785	0.006573
0.002785	0.006593
0.002785	0.006613
0.002785	0.006633
0.002783	0.006653
0.002785	0.006673
0.002784	0.006693
0.002792	0.006713
0.002785	0.006733
0.002784	0.006753
0.002785	0.006773
0.002783	0.006793
0.002785	0.006813
0.002785	0.006833
0.002785	0.006853
0.002785	0.006873
0.002787	0.006894
0.002785	0.006914
0.002786	0.006934
0.002785	0.006954
0.002786	0.006974
0.002788	0.006994
0.002787	0.007014
0.002787	0.007034
0.002786	0.007054
0.002788	0.007074
0.002788	0.007094
0.002787	0.007114
0.002787	0.007134
0.002787	0.007154
0.002788	0.007174
0.002786	0.007194
0.002788	0.007214
0.002789	0.007234
0.002789	0.007254
0.002789	0.007274
0.002790	0.007294
0.002789	0.007314
0.002795	0.007334
0.002790	0.007354
0.002789	0.007374
0.002792	0.007395
0.002791	0.007415
0.002791	0.007435
0.002790	0.007455
0.002793	0.007475
0.002792	0.007495
0.002792	0.007515
0.002792	0.007535
0.002792	0.007555
0.002793	0.007575
0.002794	0.007595
0.002794	0.007615
0.002793	0.007635
0.002796	0.007655
0.002795	0.007675
0.002798	0.007695
0.002796	0.007715
0.002795	0.007735
0.002795	0.007755
0.002796	0.007775
0.002803	0.007795
0.002803	0.007815
0.002806	0.007835
0.002808	0.007855
0.002807	0.007876
0.002805	0.007896
0.002809	0.007916
0.002805	0.007936
0.002805	0.007956
0.002809	0.007976
0.002808	0.007996
0.002812	0.008016
0.002812	0.008036
0.002813	0.008056
0.002812	0.008076
0.002813	0.008096
0.002813	0.008116
0.002812	0.008136
0.002814	0.008156
0.002813	0.008176
0.002815	0.008196
0.002814	0.008216
0.002818	0.008236
0.002817	0.008256
0.002818	0.008276
0.002819	0.008296
0.002818	0.008316
0.002820	0.008336
0.002821	0.008356
0.002819	0.008377
0.002820	0.008397
0.002821	0.008417
0.002823	0.008437
0.002824	0.008457
0.002822	0.008477
0.002825	0.008497
0.002824	0.008517
0.002824	0.008537
0.002825	0.008557
0.002828	0.008577
0.002827	0.008597
0.002829	0.008617
0.002832	0.008637
0.002831	0.008657
0.002834	0.008677
0.002835	0.008697
0.002837	0.008717
0.002838	0.008737
0.002837	0.008757
0.002840	0.008777
0.002841	0.008797
0.002842	0.008817
0.002844	0.008837
0.002846	0.008857
0.002846	0.008878
0.002849	0.008898
0.002850	0.008918
0.002852	0.008938
0.002854	0.008958
0.002856	0.008978
0.002858	0.008998
0.002861	0.009018
0.002864	0.009038
0.002866	0.009058
0.002869	0.009078
0.002873	0.009098
0.002875	0.009118
0.002879	0.009138
0.002883	0.009158
0.002888	0.009178
0.002890	0.009198
0.002897	0.009218
0.002899	0.009238
0.002905	0.009258
0.002911	0.009278
0.002916	0.009298
0.002921	0.009318
0.002927	0.009338
0.002934	0.009358
0.002937	0.009379
0.002948	0.009399
0.002949	0.009419
0.002958	0.009439
0.002960	0.009459
0.002970	0.009479
0.002973	0.009499
0.002980	0.009519
0.002984	0.009539
0.002990	0.009559
0.002996	0.009579
0.003002	0.009599
0.003008	0.009619
0.003014	0.009639
0.003022	0.009659
0.003027	0.009679
0.003034	0.009699
0.003037	0.009719
0.003043	0.009739
0.003049	0.009759
0.003054	0.009779
0.003061	0.009799
0.003066	0.009819
0.003071	0.009839
0.003078	0.009859
0.003084	0.009880
0.003089	0.009900
0.003095	0.009920
0.003099	0.009940
0.003107	0.009960
0.003111	0.009980
0.003115	0.010000
