Voltage[V]	Current[A]	CoilCurrent[A]
2.940747E-6	-1.015470E-7
2.456525E-6	1.744600E-5
2.692736E-6	3.931350E-5
2.716377E-6	5.987841E-5
2.444729E-6	7.987137E-5
2.669114E-6	9.988468E-5
2.917146E-6	0.000120
1.866023E-6	0.000140
2.680928E-6	0.000160
2.763616E-6	0.000180
2.326633E-6	0.000200
2.291186E-6	0.000220
2.303017E-6	0.000240
2.125838E-6	0.000260
2.397492E-6	0.000280
2.362049E-6	0.000300
2.208499E-6	0.000320
2.810837E-6	0.000340
2.574643E-6	0.000360
2.574649E-6	0.000381
2.385666E-6	0.000401
2.952573E-6	0.000421
2.326617E-6	0.000441
2.255763E-6	0.000461
2.173090E-6	0.000481
2.279381E-6	0.000501
1.535338E-6	0.000521
1.476277E-6	0.000541
1.995933E-6	0.000561
2.480165E-6	0.000581
2.196713E-6	0.000601
2.480157E-6	0.000621
2.692777E-6	0.000641
1.925087E-6	0.000661
2.208530E-6	0.000681
2.716382E-6	0.000701
2.503797E-6	0.000721
1.972303E-6	0.000741
2.102242E-6	0.000761
2.385668E-6	0.000781
1.747921E-6	0.000801
2.492008E-6	0.000821
2.338453E-6	0.000841
2.491963E-6	0.000861
2.090415E-6	0.000882
2.196744E-6	0.000902
2.633695E-6	0.000922
2.114033E-6	0.000942
1.866061E-6	0.000962
1.747914E-6	0.000982
1.984139E-6	0.001002
2.539246E-6	0.001022
1.889655E-6	0.001042
2.031395E-6	0.001062
2.232178E-6	0.001082
1.665276E-6	0.001102
2.751834E-6	0.001122
2.291188E-6	0.001142
2.456543E-6	0.001162
2.350262E-6	0.001182
1.889643E-6	0.001202
1.984134E-6	0.001223
2.149500E-6	0.001243
2.397510E-6	0.001263
2.031380E-6	0.001283
2.657331E-6	0.001303
2.480157E-6	0.001322
2.409288E-6	0.001342
2.279410E-6	0.001362
2.184939E-6	0.001383
2.243965E-6	0.001403
2.763636E-6	0.001423
2.385679E-6	0.001443
2.657327E-6	0.001463
2.621891E-6	0.001483
2.468365E-6	0.001503
2.787241E-6	0.001523
2.515635E-6	0.001543
2.491988E-6	0.001563
2.633722E-6	0.001583
3.165182E-6	0.001603
2.704559E-6	0.001623
2.397492E-6	0.001644
2.976209E-6	0.001664
2.704593E-6	0.001684
2.645536E-6	0.001703
2.858100E-6	0.001723
2.326644E-6	0.001743
2.503812E-6	0.001763
2.669158E-6	0.001783
3.224230E-6	0.001803
2.952604E-6	0.001823
2.586492E-6	0.001843
2.491995E-6	0.001863
2.775450E-6	0.001884
2.574692E-6	0.001904
3.696665E-6	0.001924
2.373898E-6	0.001944
2.515622E-6	0.001964
1.889670E-6	0.001984
3.389594E-6	0.002004
2.976229E-6	0.002024
3.224235E-6	0.002044
2.763643E-6	0.002064
3.554946E-6	0.002084
2.574658E-6	0.002104
2.267618E-6	0.002124
3.436822E-6	0.002144
2.704586E-6	0.002164
3.200610E-6	0.002184
2.893552E-6	0.002204
3.484060E-6	0.002225
3.236046E-6	0.002245
3.047093E-6	0.002265
3.354151E-6	0.002285
2.787254E-6	0.002304
3.425052E-6	0.002325
2.881767E-6	0.002344
2.645558E-6	0.002364
2.905366E-6	0.002385
3.637600E-6	0.002405
2.846320E-6	0.002425
3.106155E-6	0.002445
3.141586E-6	0.002465
3.271485E-6	0.002485
2.940827E-6	0.002505
3.094330E-6	0.002525
3.377781E-6	0.002545
2.704586E-6	0.002565
3.117953E-6	0.002585
3.389601E-6	0.002605
2.988045E-6	0.002626
3.212432E-6	0.002645
3.188812E-6	0.002666
3.188819E-6	0.002685
3.342357E-6	0.002705
2.858145E-6	0.002725
3.224257E-6	0.002745
3.094359E-6	0.002765
3.247867E-6	0.002785
3.590379E-6	0.002805
3.566767E-6	0.002825
2.893565E-6	0.002845
3.389609E-6	0.002866
3.306950E-6	0.002886
2.657354E-6	0.002906
3.495898E-6	0.002926
3.578576E-6	0.002946
3.117970E-6	0.002966
3.200645E-6	0.002986
3.165196E-6	0.003006
2.527429E-6	0.003026
3.200637E-6	0.003046
3.283310E-6	0.003066
3.554940E-6	0.003086
3.425026E-6	0.003106
3.401410E-6	0.003126
3.023479E-6	0.003146
3.224255E-6	0.003166
3.011664E-6	0.003186
3.318768E-6	0.003207
3.566776E-6	0.003227
3.578592E-6	0.003247
3.543144E-6	0.003267
3.649442E-6	0.003286
3.708496E-6	0.003306
3.991947E-6	0.003326
3.117966E-6	0.003346
3.389601E-6	0.003366
3.507705E-6	0.003387
3.814786E-6	0.003407
3.247895E-6	0.003427
3.507717E-6	0.003447
3.519526E-6	0.003467
4.050977E-6	0.003487
3.637633E-6	0.003507
3.755746E-6	0.003527
3.165222E-6	0.003547
3.602230E-6	0.003567
3.826599E-6	0.003587
3.673071E-6	0.003607
3.472296E-6	0.003627
3.980147E-6	0.003647
3.684876E-6	0.003667
4.086442E-6	0.003687
3.401423E-6	0.003707
3.023488E-6	0.003727
3.897479E-6	0.003747
4.228157E-6	0.003767
3.696719E-6	0.003787
3.318757E-6	0.003807
3.590389E-6	0.003827
4.133686E-6	0.003847
3.743957E-6	0.003868
4.039191E-6	0.003888
4.299012E-6	0.003908
4.180913E-6	0.003928
3.897456E-6	0.003948
3.625813E-6	0.003968
4.180914E-6	0.003988
4.145490E-6	0.004008
3.862046E-6	0.004028
4.783240E-6	0.004048
3.743948E-6	0.004068
4.228164E-6	0.004088
4.275418E-6	0.004108
3.637637E-6	0.004128
4.322646E-6	0.004148
4.098229E-6	0.004168
3.637624E-6	0.004188
3.802978E-6	0.004208
3.495910E-6	0.004228
3.909268E-6	0.004248
5.078529E-6	0.004268
4.003765E-6	0.004288
3.932895E-6	0.004308
3.791205E-6	0.004328
4.074640E-6	0.004348
3.673082E-6	0.004368
3.460487E-6	0.004389
4.003765E-6	0.004409
3.838448E-6	0.004429
4.074633E-6	0.004449
3.932904E-6	0.004469
4.263613E-6	0.004489
4.192754E-6	0.004509
3.696696E-6	0.004529
3.873833E-6	0.004549
4.121874E-6	0.004569
4.924974E-6	0.004589
4.476175E-6	0.004609
4.724208E-6	0.004629
3.543155E-6	0.004649
4.299049E-6	0.004669
3.708514E-6	0.004689
4.157308E-6	0.004709
4.098245E-6	0.004729
4.771453E-6	0.004749
3.743940E-6	0.004769
3.767573E-6	0.004789
4.074625E-6	0.004809
4.358073E-6	0.004829
3.791194E-6	0.004849
3.803005E-6	0.004869
3.838424E-6	0.004890
4.275442E-6	0.004910
4.476189E-6	0.004930
4.440755E-6	0.004950
3.980160E-6	0.004970
4.381696E-6	0.004990
4.251793E-6	0.005010
4.216374E-6	0.005030
4.180934E-6	0.005050
4.051013E-6	0.005070
4.157306E-6	0.005090
4.511616E-6	0.005110
4.062818E-6	0.005130
4.676964E-6	0.005150
4.110063E-6	0.005170
3.814817E-6	0.005190
3.885678E-6	0.005210
4.511647E-6	0.005230
0.002778	0.005250
0.002778	0.005270
0.002777	0.005290
0.002778	0.005310
0.002777	0.005330
0.002777	0.005350
0.002778	0.005370
0.002778	0.005391
0.002778	0.005411
0.002777	0.005431
0.002776	0.005451
0.002778	0.005471
0.002778	0.005491
0.002779	0.005511
0.002778	0.005531
0.002780	0.005551
0.002778	0.005571
0.002778	0.005591
0.002777	0.005611
0.002778	0.005631
0.002779	0.005651
0.002778	0.005671
0.002779	0.005691
0.002778	0.005711
0.002779	0.005731
0.002778	0.005751
0.002779	0.005771
0.002779	0.005791
0.002779	0.005811
0.002779	0.005831
0.002779	0.005851
0.002779	0.005871
0.002780	0.005892
0.002780	0.005912
0.002779	0.005932
0.002780	0.005952
0.002779	0.005972
0.002780	0.005992
0.002780	0.006012
0.002780	0.006032
0.002780	0.006052
0.002780	0.006072
0.002780	0.006092
0.002781	0.006112
0.002780	0.006132
0.002782	0.006152
0.002780	0.006172
0.002782	0.006192
0.002780	0.006213
0.002782	0.006232
0.002781	0.006252
0.002781	0.006272
0.002781	0.006292
0.002783	0.006312
0.002781	0.006332
0.002781	0.006352
0.002782	0.006372
0.002781	0.006393
0.002783	0.006413
0.002782	0.006433
0.002782	0.006453
0.002781	0.006473
0.002782	0.006493
0.002784	0.006513
0.002781	0.006533
0.002787	0.006553
0.002782	0.006573
0.002783	0.006593
0.002784	0.006613
0.002783	0.006633
0.002783	0.006653
0.002783	0.006673
0.002786	0.006693
0.002784	0.006713
0.002784	0.006733
0.002784	0.006753
0.002785	0.006773
0.002784	0.006793
0.002783	0.006813
0.002785	0.006833
0.002784	0.006853
0.002787	0.006873
0.002785	0.006894
0.002786	0.006914
0.002786	0.006934
0.002785	0.006954
0.002786	0.006974
0.002784	0.006994
0.002787	0.007014
0.002787	0.007034
0.002786	0.007054
0.002787	0.007074
0.002787	0.007094
0.002786	0.007114
0.002787	0.007134
0.002786	0.007154
0.002786	0.007174
0.002787	0.007194
0.002789	0.007214
0.002790	0.007234
0.002789	0.007254
0.002789	0.007274
0.002788	0.007294
0.002790	0.007314
0.002790	0.007334
0.002789	0.007354
0.002790	0.007374
0.002790	0.007395
0.002791	0.007415
0.002792	0.007435
0.002791	0.007455
0.002793	0.007475
0.002790	0.007495
0.002791	0.007515
0.002792	0.007535
0.002792	0.007555
0.002792	0.007575
0.002793	0.007595
0.002793	0.007615
0.002796	0.007635
0.002796	0.007655
0.002806	0.007675
0.002801	0.007695
0.002803	0.007715
0.002803	0.007735
0.002802	0.007755
0.002805	0.007775
0.002804	0.007795
0.002804	0.007815
0.002804	0.007835
0.002805	0.007855
0.002808	0.007876
0.002803	0.007896
0.002807	0.007916
0.002803	0.007936
0.002806	0.007956
0.002809	0.007976
0.002809	0.007996
0.002808	0.008016
0.002807	0.008036
0.002812	0.008056
0.002810	0.008076
0.002810	0.008096
0.002809	0.008116
0.002812	0.008136
0.002814	0.008156
0.002810	0.008176
0.002816	0.008196
0.002815	0.008216
0.002812	0.008236
0.002816	0.008256
0.002816	0.008276
0.002816	0.008296
0.002816	0.008316
0.002816	0.008336
0.002818	0.008356
0.002817	0.008377
0.002822	0.008397
0.002822	0.008417
0.002821	0.008437
0.002824	0.008457
0.002822	0.008477
0.002823	0.008497
0.002824	0.008517
0.002824	0.008537
0.002828	0.008557
0.002828	0.008577
0.002828	0.008597
0.002829	0.008617
0.002830	0.008637
0.002831	0.008657
0.002832	0.008677
0.002834	0.008697
0.002835	0.008717
0.002836	0.008737
0.002837	0.008757
0.002839	0.008777
0.002839	0.008797
0.002842	0.008817
0.002844	0.008837
0.002845	0.008857
0.002845	0.008878
0.002849	0.008898
0.002849	0.008918
0.002852	0.008938
0.002854	0.008958
0.002856	0.008978
0.002858	0.008998
0.002860	0.009018
0.002863	0.009038
0.002867	0.009058
0.002869	0.009078
0.002872	0.009098
0.002876	0.009118
0.002878	0.009138
0.002883	0.009158
0.002888	0.009178
0.002890	0.009198
0.002895	0.009218
0.002900	0.009238
0.002906	0.009258
0.002908	0.009278
0.002916	0.009298
0.002920	0.009318
0.002927	0.009338
0.002933	0.009358
0.002939	0.009379
0.002945	0.009399
0.002948	0.009419
0.002953	0.009439
0.002963	0.009459
0.002967	0.009479
0.002973	0.009499
0.002981	0.009519
0.002984	0.009539
0.002993	0.009559
0.002996	0.009579
0.003004	0.009599
0.003007	0.009619
0.003014	0.009639
0.003020	0.009659
0.003026	0.009679
0.003031	0.009699
0.003037	0.009719
0.003043	0.009739
0.003051	0.009759
0.003053	0.009779
0.003059	0.009799
0.003067	0.009819
0.003075	0.009839
0.003077	0.009859
0.003085	0.009880
0.003089	0.009900
0.003093	0.009920
0.003099	0.009940
0.003105	0.009960
0.003111	0.009980
0.003117	0.010000
