Voltage[V]	Current[A]	CoilCurrent[A]
3.661136E-6	-7.358535E-7
2.539149E-6	2.000183E-6
2.243887E-6	1.130618E-5
2.468299E-6	2.181463E-5
3.590285E-6	3.522178E-5
3.306846E-6	4.615427E-5
3.684789E-6	5.679631E-5
3.578501E-6	6.736864E-5
3.436762E-6	7.776677E-5
3.720208E-6	8.804288E-5
4.109943E-6	9.834224E-5
3.909168E-6	0.000109
3.897363E-6	0.000119
3.814688E-6	0.000129
3.306848E-6	0.000139
3.436759E-6	0.000149
3.637542E-6	0.000159
3.011595E-6	0.000169
3.200546E-6	0.000179
3.035228E-6	0.000189
2.917099E-6	0.000199
3.625722E-6	0.000210
3.200552E-6	0.000220
2.928919E-6	0.000230
3.283214E-6	0.000240
3.283209E-6	0.000250
3.212350E-6	0.000258
2.787174E-6	0.000268
3.117868E-6	0.000278
3.401314E-6	0.000288
3.897356E-6	0.000298
3.566682E-6	0.000309
3.295039E-6	0.000319
2.669070E-6	0.000329
3.200536E-6	0.000339
3.354076E-6	0.000349
3.519421E-6	0.000359
3.082439E-6	0.000369
3.932777E-6	0.000379
3.920974E-6	0.000389
3.318657E-6	0.000399
3.413141E-6	0.000409
4.594176E-6	0.000420
3.732010E-6	0.000430
3.200554E-6	0.000440
3.247778E-6	0.000450
3.625724E-6	0.000458
3.247786E-6	0.000468
3.578469E-6	0.000478
3.779256E-6	0.000489
3.448571E-6	0.000499
3.106079E-6	0.000509
3.401334E-6	0.000519
3.649335E-6	0.000529
3.543029E-6	0.000539
3.141487E-6	0.000549
3.460376E-6	0.000559
3.330455E-6	0.000569
3.708396E-6	0.000579
3.885552E-6	0.000589
3.566673E-6	0.000599
3.554873E-6	0.000610
3.271411E-6	0.000620
3.613923E-6	0.000630
2.846240E-6	0.000640
3.661180E-6	0.000650
3.330477E-6	0.000660
3.283219E-6	0.000668
3.401317E-6	0.000678
3.342269E-6	0.000688
3.389503E-6	0.000698
3.106075E-6	0.000708
3.590285E-6	0.000719
3.566707E-6	0.000729
3.720219E-6	0.000739
3.708426E-6	0.000749
3.389527E-6	0.000759
3.082450E-6	0.000769
3.448560E-6	0.000779
3.460360E-6	0.000789
3.495805E-6	0.000799
4.074514E-6	0.000809
3.342258E-6	0.000819
3.944588E-6	0.000829
3.590303E-6	0.000840
3.637551E-6	0.000850
3.637526E-6	0.000860
4.192616E-6	0.000870
3.188721E-6	0.000878
2.810802E-6	0.000888
3.684780E-6	0.000899
4.417014E-6	0.000909
3.873729E-6	0.000919
3.814679E-6	0.000929
3.850129E-6	0.000939
3.271403E-6	0.000949
3.661155E-6	0.000959
3.271392E-6	0.000969
3.235984E-6	0.000979
3.165111E-6	0.000989
3.224173E-6	0.000999
3.543038E-6	0.001009
2.798995E-6	0.001020
3.932777E-6	0.001030
3.543053E-6	0.001040
3.448580E-6	0.001050
3.732024E-6	0.001060
3.129708E-6	0.001070
3.531255E-6	0.001078
3.436764E-6	0.001088
2.999761E-6	0.001098
3.672974E-6	0.001108
3.602094E-6	0.001118
4.050902E-6	0.001129
3.212348E-6	0.001139
3.495819E-6	0.001149
3.295037E-6	0.001159
3.684776E-6	0.001169
3.460382E-6	0.001179
3.082443E-6	0.001189
4.145382E-6	0.001199
3.873747E-6	0.001209
3.566658E-6	0.001219
3.424935E-6	0.001229
3.779254E-6	0.001240
3.460356E-6	0.001250
3.637504E-6	0.001260
3.826488E-6	0.001270
3.342269E-6	0.001280
3.696587E-6	0.001288
3.602094E-6	0.001298
3.873738E-6	0.001309
3.920970E-6	0.001319
4.204421E-6	0.001329
3.602097E-6	0.001339
3.980051E-6	0.001349
3.472192E-6	0.001359
3.909177E-6	0.001369
3.590290E-6	0.001379
3.850106E-6	0.001389
3.602092E-6	0.001399
3.838319E-6	0.001409
3.094265E-6	0.001419
3.472192E-6	0.001430
3.696585E-6	0.001440
3.531222E-6	0.001450
3.637526E-6	0.001460
3.720188E-6	0.001470
3.956411E-6	0.001480
3.720206E-6	0.001488
4.275284E-6	0.001499
3.389488E-6	0.001509
3.070612E-6	0.001518
3.566667E-6	0.001528
3.755622E-6	0.001539
3.153289E-6	0.001549
3.495799E-6	0.001559
3.047007E-6	0.001569
3.684778E-6	0.001579
4.346170E-6	0.001589
3.909161E-6	0.001599
4.039068E-6	0.001609
4.216236E-6	0.001619
3.283236E-6	0.001629
4.263500E-6	0.001639
3.602108E-6	0.001650
3.885563E-6	0.001660
3.472180E-6	0.001670
3.531244E-6	0.001680
3.365887E-6	0.001690
4.133568E-6	0.001698
3.873729E-6	0.001708
3.932801E-6	0.001719
3.377711E-6	0.001729
3.295047E-6	0.001739
3.802897E-6	0.001749
3.460369E-6	0.001759
3.826508E-6	0.001769
3.330471E-6	0.001779
3.283214E-6	0.001789
3.578465E-6	0.001799
3.342260E-6	0.001809
3.531253E-6	0.001819
4.050889E-6	0.001829
3.318650E-6	0.001839
4.251679E-6	0.001850
4.086331E-6	0.001860
3.696583E-6	0.001870
3.672953E-6	0.001880
3.779267E-6	0.001890
3.850126E-6	0.001898
3.779258E-6	0.001909
3.956442E-6	0.001919
4.098152E-6	0.001929
3.791078E-6	0.001939
3.165111E-6	0.001949
3.413130E-6	0.001959
3.920984E-6	0.001969
3.484009E-6	0.001979
3.413128E-6	0.001989
3.980022E-6	0.001999
3.826482E-6	0.002009
3.672951E-6	0.002019
3.141480E-6	0.002029
3.991834E-6	0.002039
3.838315E-6	0.002049
3.625710E-6	0.002060
3.661145E-6	0.002070
3.814695E-6	0.002080
3.743839E-6	0.002090
3.920988E-6	0.002100
3.672962E-6	0.002108
3.684780E-6	0.002118
3.791059E-6	0.002128
3.318642E-6	0.002139
3.956406E-6	0.002149
3.389519E-6	0.002159
3.755626E-6	0.002169
3.625715E-6	0.002179
3.944597E-6	0.002189
3.944602E-6	0.002199
3.247775E-6	0.002209
3.318635E-6	0.002219
4.310730E-6	0.002229
2.999763E-6	0.002239
3.401321E-6	0.002250
3.838308E-6	0.002260
3.755638E-6	0.002270
3.507619E-6	0.002280
3.696612E-6	0.002290
3.165113E-6	0.002300
3.802894E-6	0.002308
4.050902E-6	0.002318
3.661149E-6	0.002328
4.039082E-6	0.002339
3.554858E-6	0.002349
3.649349E-6	0.002359
3.507626E-6	0.002369
3.791063E-6	0.002379
4.357978E-6	0.002389
3.850133E-6	0.002399
3.779251E-6	0.002409
3.495798E-6	0.002419
4.287091E-6	0.002429
3.625704E-6	0.002439
4.039097E-6	0.002449
3.791063E-6	0.002459
3.791074E-6	0.002470
3.708399E-6	0.002480
4.298909E-6	0.002490
3.732015E-6	0.002500
3.330468E-6	0.002510
4.027270E-6	0.002518
3.200559E-6	0.002528
3.814670E-6	0.002538
3.696587E-6	0.002548
3.566658E-6	0.002559
3.472174E-6	0.002569
3.826497E-6	0.002579
4.228043E-6	0.002589
3.826495E-6	0.002599
3.011572E-6	0.002609
3.543033E-6	0.002619
4.015488E-6	0.002629
3.047006E-6	0.002640
3.732030E-6	0.002650
3.920968E-6	0.002660
3.448560E-6	0.002670
3.802872E-6	0.002680
4.098130E-6	0.002690
4.039077E-6	0.002700
3.259589E-6	0.002710
3.578472E-6	0.002718
3.802881E-6	0.002729
3.413130E-6	0.002739
3.472202E-6	0.002749
3.791058E-6	0.002759
3.625717E-6	0.002769
4.109930E-6	0.002779
3.578496E-6	0.002789
3.625744E-6	0.002799
3.968220E-6	0.002809
3.708385E-6	0.002819
3.861936E-6	0.002829
3.968215E-6	0.002839
4.062698E-6	0.002849
4.523317E-6	0.002860
3.649333E-6	0.002870
4.074553E-6	0.002880
3.365891E-6	0.002890
3.578465E-6	0.002900
3.460385E-6	0.002910
3.578471E-6	0.002920
3.271418E-6	0.002928
3.295047E-6	0.002938
3.909205E-6	0.002949
3.578487E-6	0.002959
3.117881E-6	0.002969
3.802888E-6	0.002979
3.590305E-6	0.002989
3.519441E-6	0.002999
4.074525E-6	0.003009
3.389510E-6	0.003019
3.944606E-6	0.003029
3.649353E-6	0.003039
3.613923E-6	0.003050
3.448562E-6	0.003060
3.342266E-6	0.003070
3.495796E-6	0.003080
4.204412E-6	0.003090
3.826477E-6	0.003100
3.625710E-6	0.003110
4.039077E-6	0.003120
3.566705E-6	0.003128
3.070634E-6	0.003139
3.602119E-6	0.003149
3.944615E-6	0.003159
4.157171E-6	0.003169
3.732004E-6	0.003179
3.613906E-6	0.003189
3.413141E-6	0.003199
3.342271E-6	0.003209
3.035189E-6	0.003219
3.873742E-6	0.003229
3.590289E-6	0.003239
3.661138E-6	0.003249
3.838293E-6	0.003259
3.672967E-6	0.003270
4.121741E-6	0.003280
3.637511E-6	0.003290
3.035191E-6	0.003300
3.885545E-6	0.003310
3.377696E-6	0.003320
4.216237E-6	0.003330
3.909174E-6	0.003338
3.861929E-6	0.003348
4.121772E-6	0.003359
3.968240E-6	0.003369
3.767454E-6	0.003379
3.755655E-6	0.003389
3.058831E-6	0.003399
4.098116E-6	0.003409
3.684763E-6	0.003419
3.495836E-6	0.003429
4.322555E-6	0.003439
3.814699E-6	0.003449
3.519424E-6	0.003460
3.873751E-6	0.003470
3.613930E-6	0.003480
3.602116E-6	0.003490
3.460364E-6	0.003500
3.755646E-6	0.003510
4.027268E-6	0.003520
3.637526E-6	0.003530
3.897347E-6	0.003539
3.802867E-6	0.003549
4.121761E-6	0.003559
3.424933E-6	0.003569
3.578489E-6	0.003579
4.062702E-6	0.003589
3.590298E-6	0.003599
3.637544E-6	0.003609
3.365891E-6	0.003619
3.767444E-6	0.003629
3.767449E-6	0.003639
3.141487E-6	0.003650
3.649337E-6	0.003660
3.767431E-6	0.003669
4.050893E-6	0.003679
3.507614E-6	0.003690
3.802870E-6	0.003700
3.531224E-6	0.003710
3.330471E-6	0.003720
3.838299E-6	0.003730
3.932777E-6	0.003740
3.968216E-6	0.003753
3.672956E-6	0.003764
3.779249E-6	0.003774
3.602094E-6	0.003784
3.932781E-6	0.003794
3.413128E-6	0.003804
4.003645E-6	0.003814
3.495807E-6	0.003824
3.897363E-6	0.003834
3.755644E-6	0.003844
3.732010E-6	0.003854
3.613906E-6	0.003864
3.554844E-6	0.003875
3.696559E-6	0.003885
3.661147E-6	0.003895
3.850109E-6	0.003905
3.980022E-6	0.003915
3.708417E-6	0.003925
3.991841E-6	0.003935
3.590305E-6	0.003945
4.039081E-6	0.003954
3.047013E-6	0.003964
3.944584E-6	0.003974
4.216237E-6	0.003984
3.767453E-6	0.003994
3.436759E-6	0.004004
3.956437E-6	0.004014
3.318657E-6	0.004024
4.015479E-6	0.004034
3.543051E-6	0.004044
3.897367E-6	0.004054
3.802877E-6	0.004065
3.920990E-6	0.004075
3.696572E-6	0.004085
3.176912E-6	0.004094
3.448553E-6	0.004105
4.062720E-6	0.004115
3.082443E-6	0.004125
4.228054E-6	0.004135
3.708408E-6	0.004145
3.483987E-6	0.004153
3.661142E-6	0.004163
3.672969E-6	0.004174
3.318662E-6	0.004184
2.928900E-6	0.004194
3.460365E-6	0.004204
3.779269E-6	0.004214
3.283218E-6	0.004224
4.263482E-6	0.004234
3.519413E-6	0.004244
4.334359E-6	0.004254
4.109939E-6	0.004264
3.980032E-6	0.004274
3.791058E-6	0.004284
3.909157E-6	0.004295
3.578481E-6	0.004305
3.873738E-6	0.004315
4.062726E-6	0.004325
3.897372E-6	0.004335
4.169013E-6	0.004345
4.369780E-6	0.004355
2.952553E-6	0.004364
3.909181E-6	0.004374
4.145386E-6	0.004384
3.755669E-6	0.004394
3.897365E-6	0.004404
3.554858E-6	0.004414
3.531239E-6	0.004424
3.672953E-6	0.004434
3.590283E-6	0.004444
3.720199E-6	0.004454
4.027270E-6	0.004464
4.121766E-6	0.004475
4.098176E-6	0.004485
4.239881E-6	0.004495
3.330480E-6	0.004505
3.991869E-6	0.004515
4.393418E-6	0.004525
3.944600E-6	0.004535
3.932801E-6	0.004545
3.944606E-6	0.004555
4.109950E-6	0.004563
3.980040E-6	0.004574
4.228046E-6	0.004584
4.027273E-6	0.004594
4.369767E-6	0.004604
4.039071E-6	0.004614
3.602090E-6	0.004624
3.625728E-6	0.004634
3.779263E-6	0.004644
3.732037E-6	0.004654
4.298923E-6	0.004664
3.684772E-6	0.004674
3.035226E-6	0.004684
3.295028E-6	0.004695
4.086338E-6	0.004705
4.393405E-6	0.004715
3.649347E-6	0.004725
3.578483E-6	0.004735
4.322555E-6	0.004745
3.861935E-6	0.004755
4.074524E-6	0.004765
3.743833E-6	0.004774
4.535153E-6	0.004784
3.625755E-6	0.004794
4.121775E-6	0.004804
4.464266E-6	0.004814
4.145370E-6	0.004824
3.779272E-6	0.004834
3.838306E-6	0.004844
4.039088E-6	0.004854
3.968233E-6	0.004864
3.554858E-6	0.004874
3.838297E-6	0.004885
3.661158E-6	0.004895
4.310730E-6	0.004905
4.121761E-6	0.004915
3.578489E-6	0.004925
3.873734E-6	0.004935
3.354095E-6	0.004945
3.743828E-6	0.004955
3.932792E-6	0.004965
4.027308E-6	0.004973
3.342275E-6	0.004983
4.558755E-6	0.004994
3.850120E-6	0.005004
3.932810E-6	0.005014
4.298945E-6	0.005024
4.074538E-6	0.005034
3.684781E-6	0.005044
3.838319E-6	0.005054
3.543046E-6	0.005064
3.507626E-6	0.005074
3.672978E-6	0.005084
3.637535E-6	0.005094
3.543060E-6	0.005105
4.109950E-6	0.005115
4.039084E-6	0.005125
4.145402E-6	0.005135
3.755638E-6	0.005145
4.145373E-6	0.005155
4.298916E-6	0.005165
3.944611E-6	0.005175
3.531242E-6	0.005184
3.991847E-6	0.005194
3.023397E-6	0.005204
3.637546E-6	0.005214
4.228081E-6	0.005224
3.897392E-6	0.005234
4.546959E-6	0.005244
4.098158E-6	0.005254
3.861935E-6	0.005264
4.180836E-6	0.005274
3.791070E-6	0.005284
3.826517E-6	0.005294
3.873743E-6	0.005305
3.968258E-6	0.005315
3.413143E-6	0.005325
3.495808E-6	0.005335
4.558749E-6	0.005345
3.649371E-6	0.005355
4.039101E-6	0.005365
4.133584E-6	0.005375
4.629617E-6	0.005383
3.944617E-6	0.005393
4.298930E-6	0.005404
4.251697E-6	0.005414
0.002782	0.005423
0.002777	0.005434
0.002777	0.005444
0.002777	0.005454
0.002778	0.005464
0.002777	0.005474
0.002779	0.005484
0.002778	0.005494
0.002778	0.005504
0.002779	0.005514
0.002778	0.005525
0.002778	0.005535
0.002777	0.005545
0.002780	0.005555
0.002779	0.005565
0.002779	0.005575
0.002778	0.005585
0.002783	0.005594
0.002778	0.005604
0.002780	0.005614
0.002779	0.005624
0.002778	0.005634
0.002779	0.005644
0.002784	0.005654
0.002780	0.005664
0.002779	0.005674
0.002779	0.005684
0.002778	0.005694
0.002778	0.005705
0.002779	0.005715
0.002779	0.005725
0.002780	0.005735
0.002779	0.005745
0.002780	0.005755
0.002779	0.005765
0.002780	0.005775
0.002778	0.005785
0.002780	0.005794
0.002779	0.005804
0.002779	0.005813
0.002781	0.005824
0.002781	0.005834
0.002781	0.005844
0.002781	0.005854
0.002780	0.005864
0.002778	0.005874
0.002780	0.005884
0.002781	0.005894
0.002780	0.005904
0.002781	0.005914
0.002780	0.005924
0.002781	0.005934
0.002780	0.005945
0.002781	0.005955
0.002781	0.005965
0.002782	0.005975
0.002780	0.005985
0.002781	0.005995
0.002781	0.006003
0.002781	0.006014
0.002786	0.006024
0.002781	0.006034
0.002786	0.006044
0.002788	0.006054
0.002786	0.006064
0.002786	0.006074
0.002788	0.006084
0.002787	0.006095
0.002781	0.006105
0.002782	0.006115
0.002790	0.006125
0.002783	0.006135
0.002784	0.006145
0.002783	0.006155
0.002787	0.006165
0.002784	0.006175
0.002790	0.006185
0.002788	0.006195
0.002789	0.006204
0.002791	0.006214
0.002788	0.006224
0.002786	0.006234
0.002784	0.006244
0.002782	0.006254
0.002787	0.006264
0.002788	0.006274
0.002787	0.006284
0.002789	0.006294
0.002786	0.006304
0.002787	0.006315
0.002789	0.006325
0.002789	0.006335
0.002791	0.006345
0.002790	0.006355
0.002789	0.006365
0.002791	0.006375
0.002791	0.006385
0.002787	0.006395
0.002785	0.006405
0.002787	0.006414
0.002789	0.006424
0.002790	0.006434
0.002789	0.006444
0.002787	0.006454
0.002793	0.006464
0.002788	0.006474
0.002788	0.006484
0.002789	0.006494
0.002786	0.006505
0.002789	0.006515
0.002788	0.006525
0.002787	0.006535
0.002791	0.006545
0.002789	0.006555
0.002790	0.006565
0.002791	0.006575
0.002789	0.006585
0.002785	0.006595
0.002794	0.006605
0.002784	0.006614
0.002791	0.006624
0.002791	0.006634
0.002788	0.006644
0.002793	0.006654
0.002793	0.006664
0.002795	0.006674
0.002788	0.006684
0.002786	0.006694
0.002790	0.006704
0.002791	0.006714
0.002793	0.006725
0.002789	0.006735
0.002794	0.006745
0.002787	0.006755
0.002789	0.006765
0.002793	0.006775
0.002790	0.006785
0.002788	0.006795
0.002790	0.006805
0.002792	0.006815
0.002791	0.006824
0.002795	0.006834
0.002794	0.006844
0.002790	0.006854
0.002791	0.006864
0.002790	0.006874
0.002793	0.006884
0.002794	0.006894
0.002792	0.006904
0.002793	0.006915
0.002790	0.006925
0.002794	0.006935
0.002788	0.006945
0.002791	0.006955
0.002793	0.006965
0.002791	0.006975
0.002793	0.006985
0.002790	0.006995
0.002794	0.007005
0.002792	0.007015
0.002796	0.007024
0.002795	0.007034
0.002792	0.007044
0.002796	0.007054
0.002788	0.007064
0.002787	0.007074
0.002791	0.007084
0.002796	0.007094
0.002799	0.007104
0.002785	0.007114
0.002796	0.007124
0.002794	0.007135
0.002793	0.007145
0.002787	0.007155
0.002795	0.007165
0.002786	0.007175
0.002792	0.007185
0.002795	0.007195
0.002798	0.007205
0.002800	0.007215
0.002790	0.007225
0.002790	0.007234
0.002794	0.007244
0.002792	0.007254
0.002792	0.007264
0.002796	0.007274
0.002798	0.007284
0.002792	0.007294
0.002793	0.007304
0.002796	0.007314
0.002800	0.007325
0.002798	0.007335
0.002798	0.007345
0.002800	0.007355
0.002800	0.007365
0.002799	0.007375
0.002798	0.007385
0.002798	0.007395
0.002797	0.007405
0.002799	0.007415
0.002801	0.007425
0.002797	0.007435
0.002799	0.007444
0.002797	0.007454
0.002798	0.007464
0.002797	0.007474
0.002802	0.007484
0.002802	0.007494
0.002801	0.007504
0.002801	0.007515
0.002800	0.007525
0.002803	0.007534
0.002801	0.007544
0.002802	0.007555
0.002802	0.007565
0.002801	0.007575
0.002802	0.007585
0.002802	0.007595
0.002802	0.007605
0.002802	0.007615
0.002803	0.007625
0.002799	0.007635
0.002799	0.007644
0.002802	0.007654
0.002804	0.007664
0.002802	0.007674
0.002801	0.007684
0.002802	0.007694
0.002802	0.007704
0.002805	0.007714
0.002805	0.007724
0.002803	0.007734
0.002805	0.007745
0.002806	0.007755
0.002804	0.007765
0.002807	0.007775
0.002801	0.007785
0.002803	0.007795
0.002805	0.007805
0.002804	0.007815
0.002806	0.007825
0.002805	0.007835
0.002807	0.007846
0.002807	0.007854
0.002807	0.007864
0.002803	0.007874
0.002805	0.007884
0.002808	0.007894
0.002806	0.007904
0.002807	0.007914
0.002805	0.007925
0.002809	0.007935
0.002806	0.007945
0.002807	0.007955
0.002807	0.007965
0.002806	0.007975
0.002808	0.007985
0.002809	0.007995
0.002811	0.008005
0.002809	0.008015
0.002806	0.008025
0.002808	0.008035
0.002808	0.008045
0.002809	0.008054
0.002810	0.008064
0.002807	0.008074
0.002809	0.008084
0.002810	0.008094
0.002810	0.008104
0.002811	0.008114
0.002812	0.008124
0.002809	0.008134
0.002812	0.008144
0.002813	0.008155
0.002811	0.008165
0.002813	0.008175
0.002814	0.008185
0.002813	0.008195
0.002813	0.008205
0.002810	0.008215
0.002813	0.008225
0.002813	0.008235
0.002813	0.008245
0.002813	0.008256
0.002815	0.008264
0.002817	0.008274
0.002814	0.008284
0.002815	0.008294
0.002816	0.008304
0.002817	0.008314
0.002815	0.008324
0.002816	0.008335
0.002815	0.008345
0.002816	0.008355
0.002818	0.008365
0.002818	0.008375
0.002818	0.008385
0.002818	0.008395
0.002821	0.008405
0.002820	0.008415
0.002818	0.008425
0.002819	0.008435
0.002819	0.008445
0.002817	0.008455
0.002820	0.008464
0.002819	0.008474
0.002822	0.008484
0.002819	0.008494
0.002819	0.008504
0.002821	0.008514
0.002824	0.008524
0.002822	0.008534
0.002822	0.008544
0.002824	0.008555
0.002825	0.008565
0.002824	0.008575
0.002828	0.008585
0.002825	0.008595
0.002827	0.008605
0.002827	0.008615
0.002829	0.008625
0.002829	0.008635
0.002828	0.008645
0.002831	0.008655
0.002830	0.008665
0.002830	0.008674
0.002832	0.008684
0.002830	0.008694
0.002833	0.008704
0.002835	0.008714
0.002831	0.008724
0.002835	0.008734
0.002835	0.008744
0.002833	0.008755
0.002835	0.008765
0.002835	0.008775
0.002838	0.008785
0.002839	0.008795
0.002839	0.008805
0.002840	0.008815
0.002841	0.008825
0.002841	0.008835
0.002843	0.008845
0.002842	0.008855
0.002845	0.008865
0.002845	0.008874
0.002845	0.008884
0.002845	0.008894
0.002846	0.008904
0.002847	0.008914
0.002848	0.008924
0.002849	0.008934
0.002850	0.008944
0.002850	0.008954
0.002852	0.008964
0.002854	0.008975
0.002856	0.008985
0.002856	0.008995
0.002857	0.009005
0.002858	0.009015
0.002859	0.009025
0.002861	0.009035
0.002863	0.009045
0.002864	0.009055
0.002865	0.009065
0.002867	0.009075
0.002868	0.009084
0.002869	0.009094
0.002872	0.009104
0.002873	0.009114
0.002874	0.009124
0.002876	0.009134
0.002878	0.009144
0.002880	0.009154
0.002883	0.009165
0.002885	0.009175
0.002886	0.009185
0.002889	0.009195
0.002891	0.009205
0.002893	0.009215
0.002895	0.009225
0.002897	0.009235
0.002902	0.009245
0.002903	0.009255
0.002907	0.009265
0.002906	0.009275
0.002912	0.009284
0.002912	0.009294
0.002914	0.009304
0.002917	0.009314
0.002919	0.009324
0.002923	0.009334
0.002924	0.009344
0.002927	0.009354
0.002930	0.009364
0.002934	0.009374
0.002935	0.009384
0.002940	0.009395
0.002943	0.009405
0.002946	0.009415
0.002949	0.009425
0.002954	0.009435
0.002955	0.009445
0.002956	0.009455
0.002959	0.009465
0.002964	0.009476
0.002967	0.009486
0.002970	0.009494
0.002972	0.009504
0.002975	0.009514
0.002978	0.009524
0.002980	0.009534
0.002986	0.009544
0.002989	0.009555
0.002991	0.009565
0.002995	0.009575
0.002996	0.009585
0.002999	0.009595
0.003002	0.009605
0.003005	0.009615
0.003009	0.009625
0.003009	0.009635
0.003013	0.009645
0.003018	0.009655
0.003022	0.009666
0.003023	0.009676
0.003026	0.009686
0.003028	0.009694
0.003033	0.009704
0.003034	0.009714
0.003040	0.009724
0.003042	0.009734
0.003042	0.009744
0.003046	0.009754
0.003046	0.009764
0.003051	0.009775
0.003055	0.009785
0.003055	0.009795
0.003061	0.009805
0.003062	0.009815
0.003065	0.009825
0.003068	0.009835
0.003070	0.009845
0.003075	0.009855
0.003076	0.009865
0.003080	0.009875
0.003082	0.009885
0.003085	0.009896
0.003087	0.009904
0.003091	0.009914
0.003093	0.009924
0.003095	0.009934
0.003099	0.009944
0.003102	0.009955
0.003103	0.009965
0.003107	0.009975
0.003109	0.009985
0.003113	0.009995
0.003117	0.010005
0.003117	0.010015
0.003119	0.010025
0.003123	0.010035
0.003127	0.010045
0.003129	0.010055
0.003132	0.010065
0.003134	0.010075
0.003136	0.010086
0.003140	0.010096
0.003141	0.010104
0.003144	0.010114
0.003148	0.010124
0.003151	0.010134
0.003153	0.010144
0.003156	0.010154
0.003158	0.010164
0.003161	0.010174
0.003164	0.010185
0.003166	0.010195
0.003169	0.010205
0.003172	0.010215
0.003174	0.010225
0.003177	0.010235
0.003178	0.010245
0.003182	0.010255
0.003185	0.010265
0.003188	0.010275
0.003191	0.010285
0.003194	0.010295
0.003196	0.010306
0.003198	0.010314
0.003201	0.010324
0.003203	0.010334
0.003207	0.010344
0.003208	0.010354
0.003211	0.010364
0.003215	0.010375
0.003216	0.010385
0.003220	0.010395
0.003222	0.010405
0.003225	0.010415
0.003228	0.010425
0.003231	0.010435
0.003233	0.010445
0.003235	0.010455
0.003238	0.010465
0.003240	0.010475
0.003244	0.010486
0.003245	0.010496
0.003248	0.010506
0.003251	0.010514
0.003253	0.010524
0.003256	0.010534
0.003259	0.010544
0.003261	0.010554
0.003263	0.010564
0.003266	0.010574
0.003268	0.010584
0.003272	0.010595
0.003275	0.010605
0.003276	0.010615
0.003280	0.010625
0.003282	0.010635
0.003284	0.010645
0.003287	0.010655
0.003290	0.010665
0.003292	0.010675
0.003295	0.010685
0.003298	0.010695
0.003300	0.010705
0.003303	0.010716
0.003305	0.010724
0.003308	0.010734
0.003311	0.010744
0.003313	0.010754
0.003315	0.010764
0.003318	0.010774
0.003322	0.010785
0.003323	0.010795
0.003326	0.010805
0.003328	0.010815
0.003332	0.010825
0.003334	0.010835
0.003335	0.010845
0.003339	0.010855
0.003341	0.010865
0.003344	0.010875
0.003347	0.010885
0.003349	0.010895
0.003352	0.010906
0.003354	0.010916
0.003356	0.010924
0.003359	0.010934
0.003362	0.010944
0.003365	0.010954
0.003367	0.010964
0.003369	0.010975
0.003372	0.010984
0.003375	0.010994
0.003377	0.011004
0.003379	0.011015
0.003382	0.011025
0.003385	0.011035
0.003388	0.011045
0.003390	0.011055
0.003393	0.011065
0.003395	0.011075
0.003397	0.011085
0.003400	0.011095
0.003403	0.011105
0.003405	0.011115
0.003408	0.011126
0.003410	0.011134
0.003413	0.011144
0.003416	0.011154
0.003418	0.011164
0.003420	0.011174
0.003423	0.011184
0.003426	0.011195
0.003429	0.011205
0.003430	0.011215
0.003433	0.011225
0.003436	0.011235
0.003438	0.011245
0.003442	0.011260
0.003445	0.011270
0.003447	0.011280
0.003450	0.011290
0.003452	0.011300
0.003455	0.011311
0.003457	0.011321
0.003460	0.011331
0.003462	0.011339
0.003465	0.011349
0.003467	0.011359
0.003470	0.011369
0.003473	0.011380
0.003476	0.011390
0.003479	0.011400
0.003480	0.011410
0.003483	0.011420
0.003486	0.011430
0.003488	0.011440
0.003491	0.011450
0.003493	0.011460
0.003496	0.011470
0.003498	0.011480
0.003501	0.011490
0.003504	0.011500
0.003506	0.011510
0.003509	0.011520
0.003512	0.011531
0.003514	0.011539
0.003516	0.011549
0.003519	0.011559
0.003521	0.011569
0.003524	0.011579
0.003527	0.011589
0.003529	0.011599
0.003532	0.011610
0.003534	0.011620
0.003537	0.011630
0.003539	0.011640
0.003541	0.011650
0.003544	0.011660
0.003547	0.011670
0.003549	0.011680
0.003552	0.011690
0.003554	0.011700
0.003557	0.011710
0.003560	0.011721
0.003562	0.011731
0.003565	0.011741
0.003567	0.011749
0.003570	0.011759
0.003572	0.011769
0.003574	0.011779
0.003578	0.011789
0.003580	0.011800
0.003582	0.011810
0.003585	0.011820
0.003587	0.011830
0.003590	0.011840
0.003592	0.011850
0.003595	0.011860
0.003598	0.011870
0.003601	0.011880
0.003603	0.011890
0.003606	0.011900
0.003608	0.011910
0.003610	0.011920
0.003613	0.011931
0.003616	0.011941
0.003617	0.011949
0.003620	0.011959
0.003622	0.011969
0.003626	0.011979
0.003627	0.011989
0.003630	0.011999
0.003633	0.012009
0.003636	0.012020
0.003638	0.012030
0.003640	0.012040
0.003643	0.012050
0.003646	0.012060
0.003648	0.012070
0.003651	0.012080
0.003654	0.012090
0.003656	0.012100
0.003659	0.012110
0.003661	0.012120
0.003664	0.012131
0.003667	0.012141
0.003670	0.012151
0.003671	0.012159
0.003674	0.012169
0.003675	0.012179
0.003679	0.012189
0.003681	0.012199
0.003684	0.012210
0.003687	0.012220
0.003689	0.012230
0.003691	0.012240
0.003694	0.012250
0.003696	0.012260
0.003699	0.012270
0.003701	0.012280
0.003704	0.012290
0.003706	0.012300
0.003709	0.012310
0.003711	0.012320
0.003715	0.012330
0.003718	0.012340
0.003720	0.012350
0.003722	0.012359
0.003723	0.012369
0.003727	0.012379
0.003729	0.012389
0.003732	0.012399
0.003735	0.012409
0.003738	0.012419
0.003740	0.012430
0.003742	0.012440
0.003744	0.012450
0.003747	0.012460
0.003750	0.012470
0.003753	0.012480
0.003755	0.012490
0.003757	0.012500
0.003760	0.012510
0.003763	0.012520
0.003766	0.012530
0.003768	0.012540
0.003771	0.012551
0.003773	0.012561
0.003775	0.012569
0.003778	0.012579
0.003780	0.012589
0.003783	0.012599
0.003785	0.012609
0.003788	0.012619
0.003790	0.012630
0.003793	0.012640
0.003796	0.012650
0.003798	0.012660
0.003801	0.012670
0.003804	0.012680
0.003805	0.012690
0.003808	0.012700
0.003811	0.012710
0.003814	0.012720
0.003816	0.012730
0.003818	0.012740
0.003821	0.012750
0.003823	0.012760
0.003827	0.012769
0.003828	0.012779
0.003831	0.012789
0.003833	0.012799
0.003836	0.012809
0.003838	0.012819
0.003842	0.012829
0.003844	0.012839
0.003846	0.012850
0.003849	0.012860
0.003852	0.012870
0.003854	0.012880
0.003857	0.012890
0.003859	0.012900
0.003862	0.012910
0.003864	0.012920
0.003867	0.012930
0.003869	0.012940
0.003871	0.012950
0.003875	0.012960
0.003878	0.012970
0.003880	0.012979
0.003882	0.012989
0.003884	0.012999
0.003887	0.013009
0.003889	0.013019
0.003892	0.013029
0.003895	0.013039
0.003898	0.013049
0.003900	0.013060
0.003902	0.013070
0.003905	0.013080
0.003907	0.013090
0.003910	0.013100
0.003913	0.013110
0.003916	0.013120
0.003918	0.013130
0.003920	0.013140
0.003923	0.013150
0.003925	0.013160
0.003928	0.013170
0.003930	0.013179
0.003933	0.013189
0.003935	0.013199
0.003938	0.013209
0.003941	0.013219
0.003943	0.013229
0.003946	0.013239
0.003949	0.013249
0.003951	0.013259
0.003953	0.013269
0.003955	0.013279
0.003958	0.013290
0.003961	0.013300
0.003964	0.013310
0.003966	0.013320
0.003969	0.013330
0.003972	0.013340
0.003974	0.013350
0.003976	0.013360
0.003979	0.013370
0.003982	0.013380
0.003984	0.013389
0.003985	0.013399
0.003989	0.013409
0.003992	0.013419
0.003994	0.013429
0.003996	0.013439
0.003999	0.013449
0.004002	0.013459
0.004005	0.013470
0.004007	0.013480
0.004009	0.013490
0.004012	0.013500
0.004015	0.013510
0.004017	0.013520
0.004021	0.013530
0.004022	0.013540
0.004025	0.013550
0.004027	0.013560
0.004030	0.013570
0.004033	0.013580
0.004035	0.013590
0.004037	0.013599
0.004039	0.013609
0.004042	0.013619
0.004044	0.013629
0.004047	0.013639
0.004050	0.013649
0.004053	0.013659
0.004055	0.013669
0.004058	0.013679
0.004060	0.013690
0.004064	0.013700
0.004065	0.013710
0.004068	0.013720
0.004070	0.013730
0.004074	0.013740
0.004076	0.013750
0.004078	0.013760
0.004081	0.013770
0.004083	0.013780
0.004086	0.013790
0.004088	0.013799
0.004090	0.013809
0.004093	0.013819
0.004096	0.013829
0.004099	0.013839
0.004100	0.013849
0.004104	0.013859
0.004107	0.013869
0.004109	0.013880
0.004111	0.013890
0.004114	0.013900
0.004116	0.013910
0.004119	0.013920
0.004121	0.013930
0.004123	0.013940
0.004127	0.013950
0.004128	0.013960
0.004132	0.013970
0.004134	0.013980
0.004137	0.013990
0.004140	0.014000
0.004142	0.014009
0.004144	0.014019
0.004147	0.014029
0.004149	0.014039
0.004151	0.014049
0.004154	0.014059
0.004157	0.014069
0.004160	0.014079
0.004162	0.014089
0.004165	0.014099
0.004168	0.014110
0.004170	0.014120
0.004172	0.014130
0.004175	0.014140
0.004177	0.014150
0.004180	0.014160
0.004183	0.014170
0.004185	0.014180
0.004188	0.014190
0.004190	0.014200
0.004193	0.014209
0.004196	0.014219
0.004199	0.014229
0.004200	0.014239
0.004203	0.014249
0.004205	0.014259
0.004209	0.014269
0.004211	0.014279
0.004212	0.014290
0.004216	0.014300
0.004219	0.014310
0.004221	0.014320
0.004223	0.014330
0.004226	0.014340
0.004229	0.014350
0.004232	0.014360
0.004235	0.014370
0.004237	0.014380
0.004238	0.014390
0.004241	0.014400
0.004244	0.014411
0.004246	0.014419
0.004249	0.014429
0.004252	0.014439
0.004253	0.014449
0.004257	0.014459
0.004259	0.014469
0.004263	0.014479
0.004264	0.014489
0.004267	0.014499
0.004269	0.014509
0.004273	0.014520
0.004275	0.014530
0.004277	0.014540
0.004280	0.014550
0.004283	0.014560
0.004286	0.014570
0.004288	0.014580
0.004290	0.014590
0.004293	0.014600
0.004296	0.014610
0.004298	0.014619
0.004300	0.014629
0.004303	0.014639
0.004306	0.014649
0.004308	0.014659
0.004311	0.014669
0.004315	0.014679
0.004316	0.014690
0.004319	0.014700
0.004321	0.014710
0.004323	0.014720
0.004326	0.014730
0.004329	0.014740
0.004331	0.014750
0.004334	0.014760
0.004336	0.014770
0.004339	0.014780
0.004343	0.014790
0.004345	0.014800
0.004346	0.014810
0.004349	0.014821
0.004352	0.014829
0.004354	0.014839
0.004358	0.014849
0.004361	0.014859
0.004362	0.014869
0.004364	0.014879
0.004368	0.014889
0.004369	0.014899
0.004372	0.014909
0.004375	0.014919
0.004379	0.014930
0.004380	0.014940
0.004383	0.014950
0.004386	0.014960
0.004388	0.014970
0.004390	0.014980
0.004393	0.014990
0.004397	0.015000
0.004393	0.014990
0.004391	0.014980
0.004390	0.014970
0.004386	0.014960
0.004383	0.014950
0.004380	0.014940
0.004377	0.014930
0.004375	0.014920
0.004373	0.014909
0.004370	0.014899
0.004368	0.014889
0.004365	0.014879
0.004362	0.014869
0.004359	0.014859
0.004357	0.014849
0.004355	0.014839
0.004352	0.014829
0.004350	0.014821
0.004347	0.014810
0.004344	0.014800
0.004342	0.014790
0.004340	0.014780
0.004337	0.014770
0.004335	0.014760
0.004331	0.014750
0.004329	0.014740
0.004327	0.014730
0.004324	0.014720
0.004322	0.014710
0.004319	0.014700
0.004316	0.014689
0.004313	0.014679
0.004311	0.014669
0.004308	0.014659
0.004305	0.014649
0.004304	0.014639
0.004300	0.014629
0.004298	0.014619
0.004296	0.014610
0.004293	0.014600
0.004291	0.014590
0.004288	0.014580
0.004285	0.014570
0.004283	0.014560
0.004281	0.014550
0.004278	0.014540
0.004274	0.014530
0.004273	0.014520
0.004270	0.014509
0.004268	0.014499
0.004264	0.014489
0.004262	0.014479
0.004260	0.014469
0.004257	0.014459
0.004254	0.014449
0.004252	0.014439
0.004250	0.014429
0.004248	0.014419
0.004245	0.014411
0.004243	0.014400
0.004240	0.014390
0.004236	0.014380
0.004233	0.014370
0.004231	0.014360
0.004229	0.014350
0.004227	0.014340
0.004224	0.014330
0.004222	0.014320
0.004219	0.014310
0.004216	0.014300
0.004213	0.014290
0.004211	0.014279
0.004209	0.014269
0.004206	0.014259
0.004204	0.014249
0.004201	0.014239
0.004198	0.014229
0.004195	0.014219
0.004194	0.014209
0.004192	0.014200
0.004189	0.014190
0.004185	0.014180
0.004183	0.014170
0.004180	0.014160
0.004178	0.014150
0.004176	0.014140
0.004173	0.014130
0.004171	0.014120
0.004168	0.014110
0.004166	0.014099
0.004163	0.014089
0.004159	0.014079
0.004158	0.014069
0.004155	0.014059
0.004151	0.014049
0.004150	0.014039
0.004147	0.014029
0.004144	0.014019
0.004142	0.014009
0.004140	0.014000
0.004138	0.013990
0.004135	0.013980
0.004132	0.013970
0.004130	0.013960
0.004127	0.013950
0.004124	0.013940
0.004121	0.013930
0.004119	0.013920
0.004117	0.013910
0.004113	0.013900
0.004111	0.013890
0.004109	0.013880
0.004107	0.013869
0.004104	0.013859
0.004100	0.013849
0.004099	0.013839
0.004096	0.013829
0.004094	0.013819
0.004091	0.013809
0.004088	0.013799
0.004086	0.013790
0.004084	0.013780
0.004081	0.013770
0.004078	0.013760
0.004076	0.013750
0.004072	0.013740
0.004071	0.013730
0.004068	0.013720
0.004065	0.013710
0.004063	0.013700
0.004060	0.013690
0.004058	0.013679
0.004055	0.013669
0.004053	0.013659
0.004049	0.013649
0.004047	0.013639
0.004044	0.013629
0.004042	0.013619
0.004039	0.013609
0.004037	0.013599
0.004034	0.013590
0.004033	0.013580
0.004030	0.013570
0.004028	0.013560
0.004025	0.013550
0.004022	0.013540
0.004019	0.013530
0.004017	0.013520
0.004014	0.013510
0.004012	0.013500
0.004009	0.013490
0.004006	0.013480
0.004004	0.013470
0.004001	0.013459
0.003999	0.013449
0.003996	0.013439
0.003993	0.013429
0.003991	0.013419
0.003988	0.013409
0.003986	0.013399
0.003983	0.013389
0.003981	0.013380
0.003979	0.013370
0.003976	0.013360
0.003973	0.013350
0.003972	0.013340
0.003969	0.013330
0.003967	0.013320
0.003963	0.013310
0.003961	0.013300
0.003958	0.013290
0.003956	0.013279
0.003952	0.013269
0.003951	0.013259
0.003948	0.013249
0.003945	0.013239
0.003942	0.013229
0.003940	0.013219
0.003938	0.013209
0.003936	0.013199
0.003933	0.013189
0.003929	0.013179
0.003928	0.013170
0.003925	0.013160
0.003923	0.013150
0.003920	0.013140
0.003917	0.013130
0.003915	0.013120
0.003913	0.013110
0.003910	0.013100
0.003907	0.013090
0.003904	0.013080
0.003902	0.013070
0.003899	0.013060
0.003897	0.013049
0.003894	0.013039
0.003892	0.013029
0.003889	0.013019
0.003887	0.013009
0.003884	0.012999
0.003881	0.012989
0.003879	0.012979
0.003876	0.012970
0.003875	0.012960
0.003871	0.012950
0.003869	0.012940
0.003867	0.012930
0.003864	0.012920
0.003861	0.012910
0.003859	0.012900
0.003858	0.012890
0.003854	0.012880
0.003851	0.012870
0.003850	0.012860
0.003846	0.012849
0.003843	0.012839
0.003841	0.012829
0.003839	0.012819
0.003836	0.012809
0.003834	0.012799
0.003830	0.012789
0.003828	0.012779
0.003826	0.012769
0.003824	0.012760
0.003821	0.012750
0.003818	0.012740
0.003816	0.012730
0.003814	0.012720
0.003811	0.012710
0.003808	0.012700
0.003806	0.012690
0.003803	0.012680
0.003800	0.012670
0.003797	0.012660
0.003795	0.012650
0.003793	0.012640
0.003790	0.012630
0.003788	0.012619
0.003786	0.012609
0.003782	0.012599
0.003780	0.012589
0.003777	0.012579
0.003774	0.012569
0.003773	0.012561
0.003770	0.012551
0.003768	0.012540
0.003765	0.012530
0.003762	0.012520
0.003759	0.012510
0.003757	0.012500
0.003755	0.012490
0.003753	0.012480
0.003749	0.012470
0.003747	0.012460
0.003744	0.012450
0.003742	0.012440
0.003739	0.012429
0.003737	0.012419
0.003734	0.012409
0.003731	0.012399
0.003729	0.012389
0.003726	0.012379
0.003723	0.012369
0.003721	0.012359
0.003719	0.012350
0.003717	0.012340
0.003715	0.012330
0.003711	0.012320
0.003709	0.012310
0.003706	0.012300
0.003705	0.012290
0.003701	0.012280
0.003699	0.012270
0.003696	0.012260
0.003694	0.012250
0.003691	0.012240
0.003689	0.012230
0.003686	0.012220
0.003683	0.012210
0.003681	0.012199
0.003679	0.012189
0.003675	0.012179
0.003673	0.012169
0.003670	0.012159
0.003669	0.012151
0.003666	0.012141
0.003663	0.012131
0.003661	0.012120
0.003658	0.012110
0.003655	0.012100
0.003653	0.012090
0.003650	0.012080
0.003648	0.012070
0.003646	0.012060
0.003643	0.012050
0.003640	0.012040
0.003638	0.012030
0.003636	0.012019
0.003633	0.012009
0.003630	0.011999
0.003627	0.011989
0.003625	0.011979
0.003623	0.011969
0.003620	0.011959
0.003617	0.011949
0.003615	0.011941
0.003613	0.011930
0.003610	0.011920
0.003607	0.011910
0.003605	0.011900
0.003602	0.011890
0.003601	0.011880
0.003597	0.011870
0.003595	0.011860
0.003592	0.011850
0.003589	0.011840
0.003587	0.011830
0.003584	0.011820
0.003582	0.011810
0.003579	0.011800
0.003577	0.011789
0.003575	0.011779
0.003572	0.011769
0.003570	0.011759
0.003566	0.011749
0.003565	0.011741
0.003562	0.011731
0.003559	0.011721
0.003557	0.011710
0.003554	0.011700
0.003552	0.011690
0.003549	0.011680
0.003547	0.011670
0.003544	0.011660
0.003541	0.011650
0.003539	0.011640
0.003536	0.011630
0.003534	0.011620
0.003532	0.011610
0.003529	0.011599
0.003526	0.011589
0.003524	0.011579
0.003520	0.011569
0.003518	0.011559
0.003515	0.011549
0.003514	0.011539
0.003511	0.011531
0.003509	0.011520
0.003506	0.011510
0.003503	0.011500
0.003501	0.011490
0.003499	0.011480
0.003495	0.011470
0.003493	0.011460
0.003491	0.011450
0.003488	0.011440
0.003485	0.011430
0.003482	0.011420
0.003480	0.011410
0.003478	0.011400
0.003475	0.011390
0.003472	0.011380
0.003470	0.011369
0.003467	0.011359
0.003465	0.011349
0.003462	0.011339
0.003460	0.011331
0.003458	0.011321
0.003455	0.011311
0.003453	0.011300
0.003450	0.011290
0.003448	0.011280
0.003445	0.011270
0.003442	0.011260
0.003438	0.011245
0.003435	0.011235
0.003433	0.011225
0.003431	0.011215
0.003428	0.011205
0.003425	0.011195
0.003424	0.011184
0.003420	0.011174
0.003417	0.011164
0.003415	0.011154
0.003413	0.011144
0.003410	0.011134
0.003407	0.011126
0.003405	0.011115
0.003403	0.011105
0.003400	0.011095
0.003398	0.011085
0.003396	0.011075
0.003393	0.011065
0.003390	0.011055
0.003387	0.011045
0.003385	0.011035
0.003383	0.011025
0.003379	0.011015
0.003377	0.011005
0.003374	0.010994
0.003372	0.010984
0.003369	0.010975
0.003366	0.010964
0.003364	0.010954
0.003362	0.010944
0.003359	0.010934
0.003356	0.010924
0.003354	0.010916
0.003352	0.010906
0.003349	0.010895
0.003347	0.010885
0.003344	0.010875
0.003341	0.010865
0.003339	0.010855
0.003337	0.010845
0.003334	0.010835
0.003331	0.010825
0.003328	0.010815
0.003326	0.010805
0.003323	0.010795
0.003321	0.010785
0.003317	0.010775
0.003315	0.010764
0.003313	0.010754
0.003310	0.010744
0.003307	0.010734
0.003305	0.010724
0.003303	0.010716
0.003301	0.010706
0.003298	0.010695
0.003294	0.010685
0.003294	0.010675
0.003291	0.010665
0.003287	0.010655
0.003285	0.010645
0.003282	0.010635
0.003280	0.010625
0.003277	0.010615
0.003274	0.010605
0.003271	0.010595
0.003269	0.010584
0.003266	0.010574
0.003264	0.010564
0.003260	0.010554
0.003258	0.010544
0.003255	0.010534
0.003253	0.010524
0.003250	0.010514
0.003249	0.010506
0.003246	0.010496
0.003243	0.010486
0.003240	0.010475
0.003238	0.010465
0.003235	0.010455
0.003233	0.010445
0.003229	0.010435
0.003227	0.010425
0.003226	0.010415
0.003222	0.010405
0.003219	0.010395
0.003216	0.010385
0.003214	0.010375
0.003210	0.010365
0.003208	0.010354
0.003206	0.010344
0.003204	0.010334
0.003200	0.010324
0.003198	0.010314
0.003195	0.010306
0.003194	0.010295
0.003190	0.010285
0.003188	0.010275
0.003184	0.010265
0.003182	0.010255
0.003179	0.010245
0.003176	0.010235
0.003174	0.010225
0.003171	0.010215
0.003169	0.010205
0.003166	0.010195
0.003164	0.010185
0.003161	0.010174
0.003160	0.010164
0.003155	0.010154
0.003152	0.010144
0.003150	0.010134
0.003145	0.010124
0.003144	0.010114
0.003143	0.010104
0.003139	0.010096
0.003136	0.010086
0.003134	0.010075
0.003131	0.010065
0.003128	0.010055
0.003125	0.010045
0.003124	0.010035
0.003121	0.010025
0.003118	0.010015
0.003114	0.010005
0.003112	0.009995
0.003110	0.009985
0.003106	0.009975
0.003103	0.009965
0.003101	0.009955
0.003099	0.009944
0.003095	0.009934
0.003092	0.009924
0.003092	0.009914
0.003086	0.009904
0.003085	0.009896
0.003082	0.009886
0.003079	0.009875
0.003076	0.009865
0.003073	0.009855
0.003072	0.009845
0.003068	0.009835
0.003065	0.009825
0.003061	0.009815
0.003058	0.009805
0.003058	0.009795
0.003054	0.009785
0.003050	0.009775
0.003047	0.009765
0.003045	0.009754
0.003044	0.009744
0.003041	0.009734
0.003035	0.009724
0.003033	0.009714
0.003031	0.009704
0.003027	0.009694
0.003024	0.009686
0.003023	0.009676
0.003019	0.009666
0.003018	0.009655
0.003012	0.009645
0.003012	0.009635
0.003007	0.009625
0.003005	0.009615
0.003000	0.009605
0.003000	0.009595
0.002994	0.009585
0.002992	0.009575
0.002989	0.009565
0.002987	0.009555
0.002985	0.009544
0.002981	0.009534
0.002978	0.009524
0.002975	0.009514
0.002971	0.009504
0.002968	0.009494
0.002966	0.009486
0.002964	0.009476
0.002960	0.009465
0.002958	0.009455
0.002955	0.009445
0.002954	0.009435
0.002948	0.009425
0.002944	0.009415
0.002944	0.009405
0.002939	0.009395
0.002937	0.009384
0.002934	0.009374
0.002933	0.009364
0.002927	0.009354
0.002924	0.009344
0.002923	0.009334
0.002922	0.009324
0.002918	0.009314
0.002914	0.009304
0.002911	0.009294
0.002910	0.009284
0.002907	0.009275
0.002904	0.009265
0.002901	0.009255
0.002901	0.009245
0.002899	0.009235
0.002895	0.009225
0.002892	0.009215
0.002891	0.009205
0.002888	0.009195
0.002888	0.009185
0.002884	0.009175
0.002882	0.009165
0.002881	0.009154
0.002878	0.009144
0.002876	0.009134
0.002876	0.009124
0.002872	0.009114
0.002871	0.009104
0.002870	0.009094
0.002867	0.009084
0.002867	0.009075
0.002865	0.009065
0.002863	0.009055
0.002862	0.009045
0.002860	0.009035
0.002859	0.009025
0.002858	0.009015
0.002856	0.009005
0.002856	0.008995
0.002854	0.008985
0.002853	0.008975
0.002852	0.008964
0.002851	0.008954
0.002850	0.008944
0.002849	0.008934
0.002848	0.008924
0.002847	0.008914
0.002847	0.008904
0.002845	0.008894
0.002844	0.008884
0.002844	0.008874
0.002843	0.008865
0.002843	0.008855
0.002842	0.008845
0.002840	0.008835
0.002840	0.008825
0.002840	0.008815
0.002839	0.008805
0.002838	0.008795
0.002838	0.008785
0.002838	0.008775
0.002837	0.008765
0.002835	0.008755
0.002836	0.008745
0.002834	0.008734
0.002833	0.008724
0.002833	0.008714
0.002834	0.008704
0.002830	0.008694
0.002832	0.008684
0.002832	0.008674
0.002831	0.008666
0.002830	0.008655
0.002830	0.008645
0.002829	0.008635
0.002828	0.008625
0.002827	0.008615
0.002829	0.008605
0.002827	0.008595
0.002827	0.008585
0.002828	0.008575
0.002825	0.008565
0.002827	0.008555
0.002826	0.008544
0.002824	0.008534
0.002823	0.008524
0.002824	0.008514
0.002824	0.008504
0.002822	0.008494
0.002823	0.008484
0.002822	0.008474
0.002824	0.008464
0.002821	0.008455
0.002820	0.008445
0.002823	0.008435
0.002822	0.008425
0.002822	0.008415
0.002820	0.008405
0.002820	0.008395
0.002821	0.008385
0.002820	0.008375
0.002819	0.008365
0.002819	0.008355
0.002818	0.008345
0.002818	0.008335
0.002817	0.008324
0.002819	0.008314
0.002817	0.008304
0.002819	0.008294
0.002817	0.008284
0.002817	0.008274
0.002816	0.008264
0.002815	0.008256
0.002816	0.008245
0.002817	0.008235
0.002813	0.008225
0.002814	0.008215
0.002817	0.008205
0.002815	0.008195
0.002815	0.008185
0.002816	0.008175
0.002816	0.008165
0.002814	0.008155
0.002814	0.008145
0.002814	0.008134
0.002815	0.008124
0.002812	0.008114
0.002814	0.008104
0.002813	0.008094
0.002812	0.008084
0.002813	0.008074
0.002812	0.008064
0.002812	0.008054
0.002812	0.008045
0.002811	0.008035
0.002810	0.008025
0.002810	0.008015
0.002810	0.008005
0.002811	0.007995
0.002811	0.007985
0.002810	0.007975
0.002810	0.007965
0.002810	0.007955
0.002811	0.007945
0.002809	0.007935
0.002811	0.007925
0.002811	0.007914
0.002811	0.007904
0.002809	0.007894
0.002807	0.007884
0.002810	0.007874
0.002807	0.007864
0.002810	0.007854
0.002806	0.007846
0.002807	0.007835
0.002808	0.007825
0.002807	0.007815
0.002808	0.007805
0.002809	0.007795
0.002808	0.007785
0.002807	0.007775
0.002807	0.007765
0.002805	0.007755
0.002806	0.007745
0.002806	0.007734
0.002804	0.007724
0.002807	0.007714
0.002803	0.007704
0.002804	0.007694
0.002806	0.007684
0.002805	0.007674
0.002805	0.007664
0.002804	0.007654
0.002804	0.007644
0.002805	0.007635
0.002802	0.007625
0.002805	0.007615
0.002807	0.007605
0.002806	0.007595
0.002802	0.007585
0.002806	0.007575
0.002803	0.007565
0.002803	0.007555
0.002804	0.007545
0.002801	0.007534
0.002803	0.007525
0.002802	0.007514
0.002804	0.007504
0.002803	0.007494
0.002799	0.007484
0.002805	0.007474
0.002804	0.007464
0.002800	0.007454
0.002800	0.007444
0.002802	0.007435
0.002802	0.007425
0.002798	0.007415
0.002801	0.007405
0.002803	0.007395
0.002801	0.007385
0.002801	0.007375
0.002803	0.007365
0.002802	0.007355
0.002802	0.007345
0.002800	0.007335
0.002797	0.007325
0.002801	0.007314
0.002800	0.007304
0.002799	0.007294
0.002799	0.007284
0.002801	0.007274
0.002799	0.007264
0.002799	0.007254
0.002800	0.007244
0.002799	0.007234
0.002798	0.007225
0.002802	0.007215
0.002798	0.007205
0.002801	0.007195
0.002803	0.007185
0.002800	0.007175
0.002797	0.007165
0.002798	0.007155
0.002803	0.007145
0.002800	0.007135
0.002801	0.007124
0.002801	0.007114
0.002799	0.007104
0.002799	0.007094
0.002797	0.007084
0.002800	0.007074
0.002800	0.007064
0.002794	0.007054
0.002796	0.007044
0.002799	0.007034
0.002795	0.007024
0.002799	0.007015
0.002795	0.007005
0.002799	0.006995
0.002795	0.006985
0.002797	0.006975
0.002796	0.006965
0.002795	0.006955
0.002800	0.006945
0.002797	0.006935
0.002797	0.006925
0.002797	0.006915
0.002795	0.006904
0.002797	0.006894
0.002798	0.006884
0.002795	0.006874
0.002799	0.006864
0.002798	0.006854
0.002795	0.006844
0.002796	0.006834
0.002797	0.006824
0.002797	0.006815
0.002798	0.006805
0.002795	0.006795
0.002796	0.006785
0.002795	0.006775
0.002795	0.006765
0.002797	0.006755
0.002798	0.006745
0.002796	0.006735
0.002798	0.006725
0.002798	0.006714
0.002794	0.006704
0.002794	0.006694
0.002793	0.006684
0.002795	0.006674
0.002794	0.006664
0.002795	0.006654
0.002794	0.006644
0.002793	0.006634
0.002792	0.006624
0.002794	0.006614
0.002794	0.006605
0.002795	0.006595
0.002795	0.006585
0.002796	0.006575
0.002794	0.006565
0.002793	0.006555
0.002794	0.006545
0.002794	0.006535
0.002793	0.006525
0.002793	0.006515
0.002795	0.006505
0.002793	0.006494
0.002795	0.006484
0.002788	0.006474
0.002793	0.006464
0.002795	0.006454
0.002793	0.006444
0.002794	0.006434
0.002793	0.006424
0.002790	0.006414
0.002792	0.006405
0.002792	0.006395
0.002790	0.006385
0.002792	0.006375
0.002792	0.006365
0.002793	0.006355
0.002794	0.006345
0.002788	0.006335
0.002790	0.006325
0.002792	0.006314
0.002792	0.006304
0.002794	0.006294
0.002792	0.006284
0.002792	0.006274
0.002791	0.006264
0.002794	0.006254
0.002791	0.006244
0.002794	0.006234
0.002789	0.006224
0.002790	0.006214
0.002792	0.006204
0.002791	0.006195
0.002791	0.006185
0.002793	0.006175
0.002792	0.006165
0.002793	0.006155
0.002791	0.006145
0.002787	0.006135
0.002788	0.006125
0.002792	0.006115
0.002794	0.006105
0.002792	0.006095
0.002790	0.006084
0.002791	0.006074
0.002792	0.006064
0.002784	0.006054
0.002792	0.006044
0.002790	0.006034
0.002790	0.006024
0.002791	0.006014
0.002785	0.006003
0.002792	0.005995
0.002790	0.005985
0.002790	0.005975
0.002788	0.005965
0.002791	0.005955
0.002790	0.005945
0.002790	0.005934
0.002791	0.005924
0.002788	0.005914
0.002791	0.005904
0.002785	0.005894
0.002791	0.005884
0.002793	0.005874
0.002794	0.005864
0.002790	0.005854
0.002789	0.005844
0.002791	0.005834
0.002792	0.005824
0.002792	0.005814
0.002789	0.005804
0.002793	0.005794
0.002784	0.005785
0.002792	0.005775
0.002789	0.005765
0.002789	0.005755
0.002787	0.005745
0.002793	0.005735
0.002791	0.005725
0.002790	0.005714
0.002785	0.005705
0.002792	0.005694
0.002791	0.005684
0.002790	0.005674
0.002793	0.005664
0.002788	0.005654
0.002787	0.005644
0.002785	0.005634
0.002791	0.005624
0.002789	0.005614
0.002789	0.005604
0.002785	0.005593
0.002790	0.005585
0.002787	0.005575
0.002786	0.005565
0.002786	0.005555
0.002790	0.005545
0.002789	0.005535
0.002787	0.005525
0.002788	0.005514
0.002790	0.005504
0.002787	0.005494
0.002788	0.005484
0.002787	0.005474
0.002787	0.005464
0.002784	0.005454
0.002788	0.005444
0.002783	0.005434
0.002788	0.005424
0.002789	0.005414
0.002788	0.005404
0.002789	0.005393
0.002786	0.005383
0.002784	0.005375
0.002787	0.005365
0.002787	0.005355
0.002786	0.005345
0.002789	0.005335
0.002786	0.005325
0.002786	0.005315
0.002787	0.005305
0.002787	0.005295
0.002787	0.005284
0.002784	0.005274
0.002787	0.005264
0.002785	0.005254
0.002787	0.005244
0.002788	0.005234
0.002789	0.005224
0.002790	0.005214
0.002785	0.005204
0.002785	0.005194
0.002784	0.005184
0.002789	0.005175
0.002786	0.005165
0.002789	0.005155
0.002786	0.005145
0.002790	0.005135
0.002785	0.005125
0.002787	0.005115
0.002788	0.005105
0.002787	0.005094
0.002788	0.005084
0.002789	0.005074
0.002786	0.005064
0.002788	0.005054
0.002785	0.005044
0.002782	0.005034
0.002784	0.005024
0.002778	0.005014
0.002784	0.005004
0.002790	0.004994
0.002786	0.004983
0.002786	0.004973
0.002783	0.004965
0.002783	0.004955
0.002787	0.004945
0.002783	0.004935
0.002778	0.004925
0.002777	0.004915
0.002784	0.004905
0.002781	0.004895
0.002787	0.004885
0.002781	0.004874
0.002782	0.004864
0.002780	0.004854
0.002788	0.004844
0.002783	0.004834
0.002784	0.004824
0.002781	0.004814
0.002786	0.004804
0.002784	0.004794
0.002787	0.004784
0.002784	0.004774
0.002786	0.004765
0.002783	0.004755
0.002785	0.004745
0.002782	0.004735
0.002788	0.004725
0.002786	0.004715
0.002784	0.004705
0.002783	0.004695
0.002787	0.004684
0.002786	0.004674
0.002783	0.004664
0.002783	0.004654
0.002788	0.004644
0.002779	0.004634
0.002784	0.004624
0.002785	0.004614
0.002788	0.004604
0.002785	0.004594
0.002789	0.004584
0.002783	0.004574
0.002785	0.004563
0.002785	0.004555
0.002785	0.004545
0.002783	0.004535
0.002780	0.004525
0.002785	0.004515
0.002786	0.004505
0.002787	0.004495
0.002783	0.004485
0.002782	0.004475
0.002778	0.004465
0.002787	0.004454
0.002784	0.004444
0.002788	0.004434
0.002787	0.004424
0.002782	0.004414
0.002781	0.004404
0.002785	0.004394
0.002784	0.004384
0.002783	0.004374
0.002784	0.004364
0.002786	0.004355
0.002785	0.004345
0.002785	0.004335
0.002788	0.004325
0.002778	0.004315
0.002781	0.004305
0.002779	0.004295
0.002784	0.004284
0.002783	0.004274
0.002783	0.004264
0.002787	0.004254
0.002781	0.004244
0.002783	0.004234
0.002785	0.004224
0.002789	0.004214
0.002781	0.004204
0.002785	0.004194
0.002785	0.004184
0.002786	0.004174
0.002787	0.004163
0.002785	0.004153
0.002787	0.004145
0.002780	0.004135
0.002784	0.004125
0.002776	0.004115
0.002787	0.004105
0.002785	0.004094
0.002783	0.004085
0.002781	0.004075
0.002780	0.004065
0.002782	0.004054
0.002784	0.004044
0.002785	0.004034
0.002783	0.004024
0.002787	0.004014
0.002777	0.004004
0.002779	0.003994
0.002779	0.003984
0.002786	0.003974
0.002786	0.003964
0.002776	0.003954
0.002778	0.003945
0.002782	0.003935
0.002783	0.003925
0.002781	0.003915
0.002780	0.003905
0.002787	0.003895
0.002781	0.003885
0.002785	0.003875
0.002786	0.003864
0.002785	0.003854
0.002786	0.003844
0.002780	0.003834
0.002787	0.003824
0.002781	0.003814
0.002784	0.003804
0.002782	0.003794
0.002786	0.003784
0.002784	0.003774
0.002782	0.003764
0.002788	0.003753
0.002781	0.003740
0.002782	0.003730
0.002782	0.003720
0.002783	0.003710
0.002780	0.003700
0.002780	0.003690
0.002786	0.003680
0.002784	0.003669
0.002784	0.003660
0.002780	0.003650
0.002783	0.003639
0.002781	0.003629
0.002778	0.003619
0.002784	0.003609
0.002785	0.003599
0.002786	0.003589
0.002777	0.003579
0.002781	0.003569
0.002780	0.003559
0.002785	0.003549
0.002786	0.003539
0.002784	0.003530
0.002779	0.003520
0.002782	0.003510
0.002783	0.003500
0.002781	0.003490
0.002778	0.003480
0.002783	0.003470
0.002784	0.003459
0.002784	0.003449
0.002783	0.003439
0.002784	0.003429
0.002784	0.003419
0.002784	0.003409
0.002784	0.003399
0.002784	0.003389
0.002785	0.003379
0.002782	0.003369
0.002780	0.003359
0.002788	0.003348
0.002782	0.003338
0.002786	0.003330
0.002782	0.003320
0.002786	0.003310
0.002784	0.003300
0.002778	0.003290
0.002785	0.003280
0.002786	0.003269
0.002783	0.003259
0.002785	0.003249
0.002779	0.003239
0.002777	0.003229
0.002784	0.003219
0.002784	0.003209
0.002783	0.003199
0.002782	0.003189
0.002786	0.003179
0.002782	0.003169
0.002783	0.003159
0.002781	0.003149
0.002783	0.003139
0.002783	0.003128
0.002782	0.003120
0.002784	0.003110
0.002787	0.003100
0.002787	0.003090
0.002784	0.003080
0.002787	0.003070
0.002778	0.003060
0.002787	0.003049
0.002784	0.003039
0.002786	0.003029
0.002783	0.003019
0.002780	0.003009
0.002781	0.002999
0.002781	0.002989
0.002782	0.002979
0.002783	0.002969
0.002785	0.002959
0.002782	0.002949
0.002786	0.002938
0.002781	0.002928
0.002783	0.002920
0.002783	0.002910
0.002785	0.002900
0.002782	0.002890
0.002782	0.002880
0.002783	0.002870
0.002782	0.002859
0.002785	0.002849
0.002783	0.002839
0.002781	0.002829
0.002781	0.002819
0.002782	0.002809
0.002782	0.002799
0.002782	0.002789
0.002785	0.002779
0.002784	0.002769
0.002782	0.002759
0.002783	0.002749
0.002781	0.002739
0.002784	0.002729
0.002782	0.002719
0.002783	0.002710
0.002785	0.002700
0.002783	0.002690
0.002782	0.002680
0.002785	0.002670
0.002785	0.002660
0.002787	0.002650
0.002784	0.002640
0.002786	0.002629
0.002784	0.002619
0.002782	0.002609
0.002782	0.002599
0.002785	0.002589
0.002783	0.002579
0.002785	0.002569
0.002784	0.002559
0.002786	0.002549
0.002785	0.002538
0.002785	0.002528
0.002783	0.002518
0.002785	0.002510
0.002782	0.002500
0.002785	0.002490
0.002785	0.002480
0.002785	0.002469
0.002784	0.002459
0.002785	0.002449
0.002785	0.002439
0.002784	0.002429
0.002784	0.002419
0.002785	0.002409
0.002785	0.002399
0.002785	0.002389
0.002784	0.002379
0.002785	0.002369
0.002785	0.002359
0.002785	0.002349
0.002785	0.002339
0.002785	0.002328
0.002784	0.002318
0.002785	0.002308
0.002785	0.002300
0.002785	0.002290
0.002783	0.002280
0.002785	0.002270
0.002785	0.002260
0.002785	0.002250
0.002784	0.002239
0.002784	0.002229
0.002784	0.002219
0.002785	0.002209
0.002784	0.002199
0.002784	0.002189
0.002785	0.002179
0.002784	0.002169
0.002784	0.002159
0.002784	0.002149
0.002784	0.002139
0.002784	0.002128
0.002784	0.002118
0.002785	0.002108
0.002784	0.002100
0.002784	0.002090
0.002784	0.002080
0.002784	0.002070
0.002784	0.002059
0.002783	0.002049
0.002784	0.002039
0.002783	0.002029
0.002783	0.002019
0.002783	0.002009
0.002784	0.001999
0.002783	0.001989
0.002783	0.001979
0.002784	0.001969
0.002783	0.001959
0.002783	0.001949
0.002783	0.001939
0.002782	0.001929
0.002783	0.001919
0.002783	0.001908
0.002783	0.001898
0.002782	0.001890
0.002783	0.001880
0.002781	0.001870
0.002781	0.001860
0.002783	0.001850
0.002782	0.001839
0.002782	0.001829
0.002782	0.001819
0.002781	0.001809
0.002781	0.001799
0.002782	0.001789
0.002781	0.001779
0.002781	0.001769
0.002778	0.001759
0.002778	0.001749
0.002775	0.001739
0.002776	0.001729
0.002775	0.001719
0.002775	0.001708
0.002775	0.001698
0.002775	0.001690
0.002774	0.001680
0.002775	0.001670
0.002774	0.001660
0.002774	0.001649
0.002774	0.001639
0.002774	0.001629
0.002773	0.001619
0.002773	0.001609
0.002773	0.001599
0.002773	0.001589
0.002773	0.001579
0.002772	0.001569
0.002772	0.001559
0.002772	0.001549
0.002772	0.001539
0.002771	0.001529
0.002771	0.001518
0.002771	0.001509
0.002771	0.001499
0.002770	0.001488
0.002770	0.001480
0.002769	0.001470
0.002769	0.001460
0.002769	0.001450
0.002768	0.001440
0.002768	0.001430
0.002767	0.001419
0.002767	0.001409
0.002767	0.001399
0.002766	0.001389
0.002765	0.001379
0.002764	0.001369
0.002764	0.001359
0.002763	0.001349
0.002763	0.001339
0.002762	0.001329
0.002761	0.001319
0.002761	0.001309
0.002760	0.001298
0.002759	0.001288
0.002759	0.001280
0.002758	0.001270
0.002757	0.001260
0.002757	0.001250
0.002755	0.001240
0.002755	0.001229
0.002754	0.001219
0.002752	0.001209
0.002752	0.001199
0.002750	0.001189
0.002748	0.001179
0.002747	0.001169
0.002746	0.001159
0.002744	0.001149
0.002742	0.001139
0.002740	0.001129
0.002739	0.001119
0.002736	0.001108
0.002735	0.001098
0.002732	0.001088
0.002729	0.001078
0.002727	0.001070
0.002725	0.001060
0.002722	0.001050
0.002719	0.001040
0.002715	0.001030
0.002711	0.001020
0.002709	0.001009
0.002703	0.000999
0.002699	0.000989
0.002694	0.000979
0.002689	0.000969
0.002684	0.000959
0.002678	0.000949
0.002672	0.000939
0.002666	0.000929
0.002658	0.000919
0.002652	0.000909
0.002644	0.000899
0.002636	0.000888
0.002627	0.000878
0.002619	0.000870
0.002610	0.000860
0.002600	0.000850
0.002590	0.000840
0.002579	0.000829
0.002567	0.000819
0.002555	0.000809
0.002542	0.000799
0.002529	0.000789
0.002515	0.000779
0.002499	0.000769
0.002484	0.000759
0.002468	0.000749
0.002452	0.000739
0.002434	0.000729
0.002415	0.000719
0.002396	0.000708
0.002376	0.000698
0.002355	0.000688
0.002332	0.000678
0.002311	0.000668
0.002291	0.000660
0.002267	0.000650
0.002242	0.000640
0.002215	0.000630
0.002188	0.000620
0.002159	0.000609
0.002130	0.000599
0.002099	0.000589
0.002067	0.000579
0.002033	0.000569
0.001998	0.000559
0.001961	0.000549
0.001925	0.000539
0.001886	0.000529
0.001845	0.000519
0.001803	0.000509
0.001757	0.000499
0.001711	0.000489
0.001662	0.000478
0.001613	0.000468
0.001567	0.000458
0.001529	0.000450
0.001487	0.000440
0.001351	0.000430
0.001350	0.000420
0.001349	0.000409
0.001349	0.000399
0.001337	0.000389
0.001315	0.000379
0.001284	0.000369
0.001237	0.000359
0.001176	0.000349
0.001126	0.000339
0.000810	0.000329
0.000809	0.000319
0.000805	0.000309
0.000761	0.000299
0.000758	0.000288
0.000753	0.000278
0.000696	0.000268
0.000686	0.000258
0.000662	0.000250
0.000612	0.000240
0.000396	0.000230
0.000383	0.000220
3.342218E-6	0.000210
3.141435E-6	0.000200
3.294976E-6	0.000189
2.798961E-6	0.000179
2.586357E-6	0.000169
3.082418E-6	0.000159
3.436700E-6	0.000149
3.436697E-6	0.000139
3.224126E-6	0.000129
3.649309E-6	0.000119
2.881645E-6	0.000109
3.424931E-6	9.902773E-5
3.046967E-6	8.902475E-5
3.035162E-6	7.908556E-5
2.716311E-6	6.909399E-5
3.188678E-6	5.941634E-5
2.609977E-6	4.985470E-5
3.247744E-6	4.184409E-5
3.318592E-6	3.363019E-5
3.294967E-6	2.567768E-5
3.897299E-6	1.727205E-5
3.909123E-6	7.814993E-6
